File: Differential scanning calorimetry/12OCB Squalane/12OCB SqA wt fraction 000.txt
Filename	12OCB
Instrument name	DSC2A-00101 (192.168.10.4)
Operator	Yuma
rundate	2/4/2021
Sample name	12OCB
proceduresegments	Jump 100.00 °C; Isothermal 10.0 min; Jump 0.00 °C; Isothermal 5.0 min; Mark End of Cycle ; Ramp 5.00 °C/min to 100.00 °C; Mark End of Cycle ; Ramp 5.00 °C/min to 0.00 °C; Mark End of Cycle ; Ramp 5.00 °C/min to 100.00 °C; Mark End of Cycle ; Ramp 1.00 °C/min to 0.00 °C; Mark End of Cycle ; Ramp 5.00 °C/min to 100.00 °C; Mark End of Cycle ; Ramp 10.00 °C/min to 0.00 °C; Mark End of Cycle ; Ramp 10.00 °C/min to 100.00 °C; Mark End of Cycle ; Jump 0.00 °C; Mark End of Cycle
[step]
Ramp 1.00 °C/min to 0.00 °C
Time	Temperature	Heat Flow (Normalized)
s	°C	W/g
4500.30	98.93	-0.151854
4520.30	99.41	-0.0409416
4540.30	99.10	0.0257093
4560.30	98.77	0.0313026
4580.30	98.44	0.0329352
4600.30	98.11	0.0332738
4620.30	97.78	0.0332100
4640.30	97.44	0.0331115
4660.30	97.11	0.0330225
4680.30	96.78	0.0329575
4700.30	96.44	0.0329418
4720.30	96.11	0.0329033
4740.30	95.78	0.0328418
4760.30	95.44	0.0327998
4780.30	95.11	0.0328332
4800.30	94.78	0.0328119
4820.30	94.44	0.0328339
4840.30	94.11	0.0327960
4860.30	93.78	0.0328148
4880.30	93.44	0.0327474
4900.30	93.11	0.0327026
4920.30	92.78	0.0327142
4940.30	92.44	0.0327353
4960.30	92.11	0.0328256
4980.30	91.78	0.0328870
5000.30	91.45	0.0328251
5020.30	91.11	0.0329431
5040.30	90.78	0.0330552
5060.30	90.45	0.0330626
5080.30	90.11	0.0331391
5100.30	89.78	0.0333001
5120.30	89.45	0.0333774
5140.30	89.11	0.0335289
5160.30	88.78	0.0336901
5180.30	88.57	0.460552
5200.30	88.15	0.226135
5220.30	87.78	0.0436329
5240.30	87.45	0.0369734
5260.30	87.11	0.0345138
5280.30	86.78	0.0338748
5300.30	86.45	0.0334156
5320.30	86.11	0.0331093
5340.30	85.78	0.0328798
5360.30	85.45	0.0327099
5380.30	85.11	0.0325844
5400.30	84.78	0.0324552
5420.30	84.45	0.0322586
5440.30	84.11	0.0321559
5460.30	83.78	0.0319381
5480.30	83.44	0.0319002
5500.30	83.11	0.0317532
5520.30	82.78	0.0316717
5540.30	82.45	0.0315427
5560.30	82.11	0.0313868
5580.30	81.78	0.0312703
5600.30	81.45	0.0312170
5620.30	81.11	0.0310804
5640.30	80.78	0.0309356
5660.30	80.45	0.0308688
5680.30	80.11	0.0308318
5700.30	79.78	0.0307514
5720.30	79.45	0.0306416
5740.30	79.11	0.0305003
5760.30	78.78	0.0304080
5780.30	78.45	0.0303682
5800.30	78.11	0.0302916
5820.30	77.78	0.0302334
5840.30	77.45	0.0300731
5860.30	77.11	0.0299828
5880.30	76.78	0.0299417
5900.30	76.45	0.0298697
5920.30	76.11	0.0297724
5940.30	75.78	0.0296142
5960.30	75.45	0.0295232
5980.30	75.11	0.0294904
6000.30	74.78	0.0295532
6020.30	74.45	0.0294502
6040.30	74.11	0.0293305
6060.30	73.78	0.0292502
6080.30	73.45	0.0291869
6100.30	73.11	0.0291297
6120.30	72.78	0.0290784
6140.30	72.45	0.0290887
6160.30	72.11	0.0290352
6180.30	71.78	0.0289196
6200.30	71.45	0.0287953
6220.30	71.11	0.0287214
6240.30	70.78	0.0287196
6260.30	70.45	0.0285683
6280.30	70.11	0.0284620
6300.30	69.78	0.0284459
6320.30	69.45	0.0283520
6340.30	69.11	0.0283911
6360.30	68.78	0.0282377
6380.30	68.45	0.0282455
6400.30	68.11	0.0282164
6420.30	67.78	0.0281229
6440.30	67.44	0.0280234
6460.30	67.11	0.0279741
6480.30	66.78	0.0279870
6500.30	66.45	0.0279648
6520.30	66.11	0.0278871
6540.30	65.78	0.0278051
6560.30	65.44	0.0276786
6580.30	65.11	0.0276784
6600.30	64.78	0.0276339
6620.30	64.44	0.0276027
6640.30	64.11	0.0275207
6660.30	63.78	0.0274265
6680.30	63.45	0.0273757
6700.30	63.11	0.0273253
6720.30	62.78	0.0272800
6740.30	62.45	0.0271970
6760.30	62.11	0.0271831
6780.30	61.78	0.0271137
6800.30	61.45	0.0270902
6820.30	61.11	0.0270503
6840.30	60.78	0.0269595
6860.30	60.44	0.0269751
6880.30	60.11	0.0268130
6900.30	59.78	0.0267801
6920.30	59.44	0.0267347
6940.30	59.11	0.0267238
6960.30	58.78	0.0266677
6980.30	58.45	0.0265679
7000.30	58.11	0.0265404
7020.30	57.78	0.0265232
7040.30	57.44	0.0265108
7060.30	57.11	0.0264158
7080.30	56.78	0.0262566
7100.30	56.44	0.0262518
7120.30	56.11	0.0261834
7140.30	55.78	0.0261994
7160.30	55.44	0.0261912
7180.30	55.11	0.0261464
7200.30	54.78	0.0260757
7220.30	54.45	0.0260440
7240.30	54.11	0.0259617
7260.30	53.78	0.0259307
7280.30	53.44	0.0258903
7300.30	53.11	0.0258000
7320.30	52.78	0.0257845
7340.30	52.45	0.0257664
7360.30	52.11	0.0257130
7380.30	51.78	0.0256912
7400.30	51.56	0.0292165
7420.30	51.90	2.85739
7440.30	51.06	1.36096
7460.30	50.45	0.0685551
7480.30	50.11	0.0273303
7500.30	49.78	0.0229081
7520.30	49.44	0.0211224
7540.30	49.11	0.0203726
7560.30	48.78	0.0199529
7580.30	48.44	0.0196884
7600.30	48.11	0.0198556
7620.30	47.78	0.0195645
7640.30	47.44	0.0193118
7660.30	47.11	0.0190492
7680.30	46.78	0.0188603
7700.30	46.44	0.0196127
7720.30	46.11	0.0189089
7740.30	45.78	0.0186396
7760.30	45.44	0.0183200
7780.30	45.11	0.0181604
7800.30	44.78	0.0180178
7820.30	44.44	0.0179162
7840.30	44.11	0.0178109
7860.30	43.78	0.0176937
7880.30	43.44	0.0175614
7900.30	43.11	0.0174062
7920.30	42.78	0.0172908
7940.30	42.44	0.0172879
7960.30	42.11	0.0172102
7980.30	41.78	0.0170371
8000.30	41.44	0.0169881
8020.30	41.11	0.0169018
8040.30	40.78	0.0167701
8060.30	40.44	0.0165987
8080.30	40.11	0.0165432
8100.30	39.78	0.0166202
8120.30	39.44	0.0164943
8140.30	39.11	0.0163930
8160.30	38.78	0.0162448
8180.30	38.44	0.0161297
8200.30	38.11	0.0159711
8220.30	37.77	0.0158898
8240.30	37.44	0.0158772
8260.30	37.11	0.0157673
8280.30	36.77	0.0156332
8300.30	36.44	0.0155742
8320.30	36.11	0.0155390
8340.30	35.77	0.0153878
8360.30	35.44	0.0153164
8380.30	35.11	0.0152042
8400.30	34.77	0.0150820
8420.30	34.44	0.0149785
8440.30	34.11	0.0148613
8460.30	33.77	0.0199672
8480.30	33.44	0.0162182
8500.30	33.11	0.0151199
8520.30	32.77	0.0147636
8540.30	32.44	0.0145971
8560.30	32.11	0.0145499
8580.30	31.77	0.0144236
8600.30	31.44	0.0144044
8620.30	31.11	0.0348532
8640.30	30.77	0.0199526
8660.30	30.44	0.0159486
8680.30	30.11	0.0148011
8700.30	29.77	0.0144618
8720.30	29.44	0.0143622
8740.30	29.11	0.0142532
8760.30	28.77	0.0142146
8780.30	28.44	0.0140771
8800.30	28.11	0.0139954
8820.30	27.77	0.0139447
8840.30	27.44	0.0139100
8860.30	27.11	0.0138636
8880.30	26.77	0.0137889
8900.30	26.44	0.0137591
8920.30	26.11	0.0136972
8940.30	25.77	0.0136101
8960.30	25.44	0.0160009
8980.30	25.11	0.0142330
9000.30	24.77	0.0136900
9020.30	24.44	0.0135970
9040.30	24.11	0.0133881
9060.30	23.77	0.0132401
9080.30	23.44	0.0131477
9100.30	23.11	0.0130677
9120.30	22.77	0.0130471
9140.30	22.44	0.0129457
9160.30	22.11	0.0128324
9180.30	21.77	0.0127600
9200.30	21.44	0.0126309
9220.30	21.11	0.0128237
9240.30	20.77	0.0127043
9260.30	20.44	0.0131635
9280.30	20.11	0.0126399
9300.30	19.77	0.0123937
9320.30	19.44	0.0125797
9340.30	19.11	0.0123093
9360.30	18.77	0.0120635
9380.30	18.44	0.0123736
9400.30	18.11	0.0123626
9420.30	17.77	0.0119963
9440.30	17.44	0.0127460
9460.30	17.11	0.0122311
9480.30	16.77	0.0118855
9500.30	16.44	0.0117462
9520.30	16.10	0.0116031
9540.30	15.77	0.0114980
9560.30	15.44	0.0118085
9580.30	15.10	0.0115252
9600.30	14.77	0.0113608
9620.30	14.44	0.0112260
9640.30	14.11	0.0112577
9660.30	13.77	0.0111416
9680.30	13.44	0.0111325
9700.30	13.11	0.0110833
9720.30	12.77	0.0111239
9740.30	12.44	0.0109505
9760.30	12.11	0.0108352
9780.30	11.77	0.0107734
9800.30	11.44	0.0107153
9820.30	11.11	0.0107531
9840.30	10.77	0.0105824
9860.30	10.44	0.0107118
9880.30	10.11	0.0105959
9900.30	9.77	0.0105402
9920.30	9.44	0.0103339
9940.30	9.10	0.0102064
9960.30	8.77	0.0100806
9980.30	8.44	9.94132e-3
10000.3	8.10	9.80823e-3
10020.3	7.77	9.83358e-3
10040.3	7.44	9.71208e-3
10060.3	7.11	9.56458e-3
10080.3	6.77	9.54291e-3
10100.3	6.44	9.51873e-3
10120.3	6.11	9.36390e-3
10140.3	5.77	9.35128e-3
10160.3	5.44	9.31896e-3
10180.3	5.10	9.81084e-3
10200.3	4.77	9.33553e-3
10220.3	4.44	9.25970e-3
10240.3	4.10	9.12568e-3
10260.3	3.77	9.19350e-3
10280.3	3.44	9.04381e-3
10300.3	3.10	8.96864e-3
10320.3	2.77	8.89371e-3
10340.3	2.44	8.87869e-3
10360.3	2.11	8.85810e-3
10380.3	1.77	9.05379e-3
10400.3	1.44	8.93246e-3
10420.3	1.10	8.82574e-3
10440.3	0.77	8.79089e-3
10460.3	0.44	8.76278e-3
10480.3	0.10	9.02777e-3
10500.2	-0.23	8.87544e-3