File: Differential scanning calorimetry/12OCB Squalane/12OCB SqA wt fraction 800.txt
Filename	12OCBSqA800
Instrument name	DSC2A-00101 (192.168.10.4)
Operator	Yuma
rundate	3/14/2021
Sample name	12OCBSqA800
proceduresegments	Data Off ; Equilibrate 150.00 °C; Isothermal 10.0 min; Equilibrate 100.00 °C; Isothermal 5.0 min; Data On ; Ramp 1.00 °C/min to 0.00 °C; Ramp 5.00 °C/min to 150.00 °C; Data Off ; Isothermal 10.0 min; Modulate Temperature 1.00 °C for 60.0 s; Equilibrate 100.00 °C; Isothermal 10.0 min; Data On ; Ramp 1.00 °C/min to 0.00 °C; Data Off ; Equilibrate 0.00 °C; Modulate Temperature 1.00 °C for 60.0 s; Isothermal 5.0 min; Data On ; Ramp 3.00 °C/min to 100.00 °C; Jump 30.00 °C
[step]
Ramp 1.00 °C/min to 0.00 °C
Time	Temperature	Heat Flow (Normalized)
s	°C	W/g
0.00000	99.85	0.0265568
20.0000	99.65	0.0241940
40.0000	99.33	0.0387565
60.0000	98.99	0.0429033
80.0000	98.66	0.0438517
100.000	98.33	0.0440666
120.000	97.99	0.0440610
140.000	97.66	0.0440732
160.000	97.33	0.0439284
180.000	96.99	0.0438533
200.000	96.66	0.0437957
220.000	96.33	0.0436652
240.000	95.99	0.0435484
260.000	95.66	0.0434027
280.000	95.33	0.0433341
300.000	94.99	0.0434472
320.000	94.66	0.0433552
340.000	94.33	0.0421958
360.000	93.99	0.0424049
380.000	93.66	0.0427800
400.000	93.33	0.0428020
420.000	92.99	0.0428737
440.000	92.66	0.0428802
460.000	92.33	0.0427702
480.000	91.99	0.0427455
500.000	91.66	0.0427010
520.000	91.33	0.0424291
540.000	90.99	0.0424448
560.000	90.66	0.0423857
580.000	90.33	0.0423093
600.000	89.99	0.0422756
620.000	89.66	0.0422517
640.000	89.33	0.0422165
660.000	88.99	0.0419814
680.000	88.66	0.0419839
700.000	88.33	0.0418912
720.000	87.99	0.0418251
740.000	87.66	0.0417660
760.000	87.33	0.0416629
780.000	86.99	0.0415739
800.000	86.66	0.0415378
820.000	86.33	0.0413883
840.000	85.99	0.0413271
860.000	85.66	0.0412558
880.000	85.33	0.0410947
900.000	84.99	0.0412025
920.000	84.66	0.0411291
940.000	84.33	0.0409844
960.000	83.99	0.0408545
980.000	83.66	0.0407800
1000.00	83.33	0.0406348
1020.00	82.99	0.0402578
1040.00	82.66	0.0403408
1060.00	82.33	0.0405050
1080.00	81.99	0.0404758
1100.00	81.66	0.0404180
1120.00	81.33	0.0404427
1140.00	80.99	0.0404199
1160.00	80.66	0.0404250
1180.00	80.33	0.0402124
1200.00	79.99	0.0402294
1220.00	79.66	0.0401955
1240.00	79.33	0.0400701
1260.00	78.99	0.0400684
1280.00	78.66	0.0400275
1300.00	78.33	0.0398852
1320.00	77.99	0.0398313
1340.00	77.66	0.0397821
1360.00	77.33	0.0396556
1380.00	76.99	0.0396739
1400.00	76.66	0.0396213
1420.00	76.33	0.0396273
1440.00	75.99	0.0395219
1460.00	75.66	0.0395683
1480.00	75.33	0.0394132
1500.00	74.99	0.0394309
1520.00	74.66	0.0393018
1540.00	74.33	0.0392220
1560.00	74.00	0.0391710
1580.00	73.66	0.0391149
1600.00	73.33	0.0390254
1620.00	72.99	0.0389989
1640.00	72.66	0.0389977
1660.00	72.33	0.0388148
1680.00	71.99	0.0387978
1700.00	71.66	0.0387769
1720.00	71.33	0.0385747
1740.00	70.99	0.0385719
1760.00	70.66	0.0384912
1780.00	70.33	0.0383330
1800.00	69.99	0.0383599
1820.00	69.66	0.0382665
1840.00	69.33	0.0382147
1860.00	68.99	0.0381971
1880.00	68.66	0.0380826
1900.00	68.33	0.0379474
1920.00	67.99	0.0379257
1940.00	67.66	0.0379850
1960.00	67.33	0.0378155
1980.00	66.99	0.0377684
2000.00	66.66	0.0377108
2020.00	66.33	0.0376748
2040.00	65.99	0.0375825
2060.00	65.66	0.0375026
2080.00	65.33	0.0374160
2100.00	64.99	0.0373590
2120.00	64.66	0.0373062
2140.00	64.33	0.0372313
2160.00	63.99	0.0372242
2180.00	63.66	0.0370913
2200.00	63.33	0.0370510
2220.00	62.99	0.0369806
2240.00	62.66	0.0369721
2260.00	62.33	0.0368230
2280.00	61.99	0.0368340
2300.00	61.66	0.0368450
2320.00	61.33	0.0367403
2340.00	60.99	0.0365662
2360.00	60.66	0.0365646
2380.00	60.33	0.0365437
2400.00	59.99	0.0364979
2420.00	59.66	0.0365566
2440.00	59.33	0.0364582
2460.00	58.99	0.0363009
2480.00	58.66	0.0362556
2500.00	58.33	0.0361715
2520.00	57.99	0.0361181
2540.00	57.66	0.0361106
2560.00	57.33	0.0360766
2580.00	56.99	0.0359746
2600.00	56.66	0.0358235
2620.00	56.33	0.0358169
2640.00	55.99	0.0357541
2660.00	55.66	0.0357977
2680.00	55.33	0.0357011
2700.00	54.99	0.0356449
2720.00	54.66	0.0356113
2740.00	54.33	0.0354841
2760.00	53.99	0.0355189
2780.00	53.66	0.0370664
2800.00	53.33	0.0397309
2820.00	52.99	0.0411542
2840.00	52.66	0.0408612
2860.00	52.33	0.0406405
2880.00	51.99	0.0404401
2900.00	51.66	0.0403320
2920.00	51.33	0.0401846
2940.00	50.99	0.0400859
2960.00	50.66	0.0399141
2980.00	50.33	0.0395831
3000.00	49.99	0.0393847
3020.00	49.66	0.0393154
3040.00	49.33	0.0390633
3060.00	48.99	0.0389416
3080.00	48.66	0.0387364
3100.00	48.33	0.0386117
3120.00	47.99	0.0383740
3140.00	47.66	0.0381969
3160.00	47.33	0.0382218
3180.00	46.99	0.0379705
3200.00	46.66	0.0378665
3220.00	46.33	0.0376051
3240.00	45.99	0.0375486
3260.00	45.66	0.0373610
3280.00	45.33	0.0373112
3300.00	44.99	0.0370706
3320.00	44.66	0.0369954
3340.00	44.33	0.0369059
3360.00	43.99	0.0368471
3380.00	43.66	0.0365489
3400.00	43.52	0.797612
3420.00	43.07	0.424165
3440.00	42.66	0.0579183
3460.00	42.33	0.0437423
3480.00	41.99	0.0402399
3500.00	41.66	0.0390835
3520.00	41.33	0.0384117
3540.00	40.99	0.0380495
3560.00	40.66	0.0376660
3580.00	40.33	0.0373694
3600.00	39.99	0.0371877
3620.00	39.66	0.0368777
3640.00	39.33	0.0365710
3660.00	38.99	0.0364408
3680.00	38.66	0.0360440
3700.00	38.32	0.0359132
3720.00	37.99	0.0356706
3740.00	37.66	0.0354571
3760.00	37.32	0.0352848
3780.00	36.99	0.0350149
3800.00	36.66	0.0348613
3820.00	36.32	0.0347073
3840.00	35.99	0.0345066
3860.00	35.66	0.0343063
3880.00	35.32	0.0342380
3900.00	34.99	0.0339677
3920.00	34.66	0.0337384
3940.00	34.32	0.0336698
3960.00	33.99	0.0334381
3980.00	33.66	0.0334021
4000.00	33.32	0.0332210
4020.00	32.99	0.0330699
4040.00	32.66	0.0329705
4060.00	32.32	0.0328016
4080.00	31.99	0.0326540
4100.00	31.66	0.0325742
4120.00	31.32	0.0324790
4140.00	30.99	0.0324485
4160.00	30.66	0.0323069
4180.00	30.32	0.0323326
4200.00	29.99	0.0320806
4220.00	29.66	0.0319820
4240.00	29.32	0.0318567
4260.00	28.99	0.0317372
4280.00	28.65	0.0316643
4300.00	28.32	0.0315503
4320.00	27.99	0.0315319
4340.00	27.66	0.0314450
4360.00	27.32	0.0313425
4380.00	26.99	0.0312641
4400.00	26.65	0.0311915
4420.00	26.32	0.0310310
4440.00	25.99	0.0309576
4460.00	25.66	0.0308284
4480.00	25.32	0.0307259
4500.00	24.99	0.0306624
4520.00	24.66	0.0307049
4540.00	24.32	0.0305816
4560.00	23.99	0.0304835
4580.00	23.65	0.0303323
4600.00	23.32	0.0301294
4620.00	22.99	0.0300849
4640.00	22.65	0.0300720
4660.00	22.32	0.0299075
4680.00	21.99	0.0297885
4700.00	21.65	0.0296372
4720.00	21.32	0.0295199
4740.00	20.99	0.0294895
4760.00	20.65	0.0294339
4780.00	20.32	0.0292204
4800.00	19.99	0.0291109
4820.00	19.66	0.0290905
4840.00	19.32	0.0290096
4860.00	18.99	0.0289431
4880.00	18.65	0.0288422
4900.00	18.32	0.0287047
4920.00	17.99	0.0284802
4940.00	17.65	0.0284774
4960.00	17.32	0.0283485
4980.00	16.99	0.0283557
5000.00	16.66	0.0280326
5020.00	16.32	0.0280300
5040.00	15.99	0.0280103
5060.00	15.65	0.0279964
5080.00	15.32	0.0277364
5100.00	14.99	0.0277667
5120.00	14.65	0.0276701
5140.00	14.32	0.0274491
5160.00	13.99	0.0274721
5180.00	13.65	0.0272767
5200.00	13.32	0.0272043
5220.00	12.99	0.0270863
5240.00	12.65	0.0270943
5260.00	12.32	0.0269646
5280.00	11.99	0.0268997
5300.00	11.65	0.0268346
5320.00	11.32	0.0266928
5340.00	10.99	0.0266314
5360.00	10.65	0.0266254
5380.00	10.32	0.0265223
5400.00	9.99	0.0264085
5420.00	9.65	0.0263268
5440.00	9.32	0.0262721
5460.00	8.99	0.0262508
5480.00	8.65	0.0259651
5500.00	8.32	0.0258957
5520.00	7.99	0.0257888
5540.00	7.65	0.0258455
5560.00	7.32	0.0256707
5580.00	6.99	0.0254865
5600.00	6.65	0.0254126
5620.00	6.32	0.0253557
5640.00	5.99	0.0252287
5660.00	5.65	0.0249986
5680.00	5.32	0.0249470
5700.00	4.99	0.0248849
5720.00	4.65	0.0248355
5740.00	4.32	0.0247286
5760.00	3.98	0.0245624
5780.00	3.65	0.0245969
5800.00	3.32	0.0245566
5820.00	2.99	0.0244519
5840.00	2.65	0.0245225
5860.00	2.32	0.0244536
5880.00	1.98	0.0244912
5900.00	1.65	0.0243703
5920.00	1.32	0.0243913
5940.00	0.98	0.0242025
5960.00	0.65	0.0241586
5980.00	0.32	0.0242275
5999.90	-0.01	0.0242883