File: Differential scanning calorimetry/12OCB Squalane/12OCB SqA wt fraction 424.txt
Filename	12OCBSqA424
Instrument name	DSC2A-00101 (192.168.10.4)
Operator	Yuma
rundate	3/16/2021
Sample name	12OCBSqA424
proceduresegments	Data Off ; Equilibrate 150.00 °C; Isothermal 10.0 min; Equilibrate 100.00 °C; Isothermal 5.0 min; Data On ; Ramp 1.00 °C/min to 0.00 °C; Ramp 5.00 °C/min to 150.00 °C; Data Off ; Isothermal 10.0 min; Modulate Temperature 1.00 °C for 60.0 s; Equilibrate 100.00 °C; Isothermal 10.0 min; Data On ; Ramp 1.00 °C/min to 0.00 °C; Data Off ; Equilibrate 0.00 °C; Modulate Temperature 1.00 °C for 60.0 s; Isothermal 5.0 min; Data On ; Ramp 3.00 °C/min to 100.00 °C; Jump 30.00 °C
[step]
Ramp 1.00 °C/min to 0.00 °C
Time	Temperature	Heat Flow (Normalized)
s	°C	W/g
0.00000	99.85	0.0171441
20.1000	99.66	0.0393391
40.2000	99.33	0.0479071
60.3000	98.99	0.0505055
80.4000	98.66	0.0511495
100.500	98.32	0.0514194
120.600	97.99	0.0513854
140.700	97.66	0.0513149
160.800	97.32	0.0513495
180.900	96.99	0.0512971
201.000	96.65	0.0513402
221.100	96.31	0.0513217
241.200	95.98	0.0513003
261.300	95.65	0.0512405
281.400	95.31	0.0511589
301.500	94.98	0.0511258
321.600	94.64	0.0511922
341.700	94.31	0.0511190
361.800	93.97	0.0510747
381.900	93.64	0.0509825
402.000	93.30	0.0509693
422.100	92.96	0.0509909
442.200	92.63	0.0509046
462.300	92.30	0.0509533
482.400	91.96	0.0509990
502.500	91.63	0.0509701
522.600	91.29	0.0509008
542.700	90.96	0.0508420
562.800	90.62	0.0509348
582.900	90.28	0.0508557
603.000	89.95	0.0508530
623.100	89.61	0.0508254
643.200	89.28	0.0508231
663.300	88.95	0.0507165
683.400	88.61	0.0507844
703.500	88.27	0.0508009
723.600	87.94	0.0507730
743.700	87.60	0.0506984
763.800	87.27	0.0507347
783.900	86.94	0.0506926
804.000	86.60	0.0507484
824.100	86.27	0.0506811
844.200	85.93	0.0507140
864.300	85.59	0.0507077
884.400	85.26	0.0507410
904.500	84.92	0.0506971
924.600	84.59	0.0507450
944.700	84.25	0.0506111
964.800	83.92	0.0505479
984.900	83.58	0.0506502
1005.00	83.25	0.0505683
1025.10	82.92	0.0505861
1045.20	82.58	0.0505738
1065.30	82.25	0.0505553
1085.40	81.91	0.0505672
1105.50	81.58	0.0505480
1125.60	81.24	0.0504985
1145.70	80.91	0.0505780
1165.80	80.57	0.0506317
1185.90	80.24	0.0505689
1206.00	79.90	0.0504818
1226.10	79.57	0.0504984
1246.20	79.23	0.0505147
1266.30	78.90	0.0506058
1286.40	78.56	0.0506239
1306.50	78.23	0.0505671
1326.60	77.89	0.0505279
1346.70	77.56	0.0506093
1366.80	77.22	0.0506028
1386.90	76.89	0.0505698
1407.00	76.55	0.0505277
1427.10	76.21	0.0505906
1447.20	75.88	0.0505435
1467.30	75.55	0.0505599
1487.40	75.21	0.0505831
1507.50	74.88	0.0505815
1527.60	74.54	0.0505608
1547.70	74.21	0.0505701
1567.80	73.87	0.0505567
1587.90	73.54	0.0505719
1608.00	73.20	0.0505494
1628.10	72.87	0.0505282
1648.20	72.53	0.0506074
1668.30	72.20	0.0506020
1688.40	71.86	0.0506297
1708.50	71.53	0.0506765
1728.60	71.19	0.0507566
1748.70	70.86	0.0507366
1768.80	70.52	0.0508097
1788.90	70.18	0.0507853
1809.00	69.85	0.0508127
1829.10	69.51	0.0508957
1849.20	69.18	0.0508953
1869.30	68.85	0.0508948
1889.40	68.51	0.0509399
1909.50	68.17	0.0509229
1929.60	67.84	0.0510247
1949.70	67.50	0.0511331
1969.80	67.17	0.0512057
1989.90	66.83	0.0512670
2010.00	66.50	0.0513761
2030.10	66.19	0.104997
2050.20	65.84	0.0910270
2070.30	65.51	0.0847797
2090.40	65.17	0.0809905
2110.50	64.84	0.0786035
2130.60	64.50	0.0768233
2150.70	64.16	0.0750915
2170.80	63.83	0.0736694
2190.90	63.49	0.0721576
2211.00	63.16	0.0707477
2231.10	62.82	0.0694014
2251.20	62.49	0.0680477
2271.30	62.15	0.0667660
2291.40	61.82	0.0656137
2311.50	61.48	0.0646100
2331.60	61.15	0.0634838
2351.70	60.81	0.0625968
2371.80	60.47	0.0616567
2391.90	60.14	0.0608231
2412.00	59.80	0.0600790
2432.10	59.47	0.0593436
2452.20	59.13	0.0587217
2472.30	58.80	0.0581194
2492.40	58.46	0.0574553
2512.50	58.13	0.0569320
2532.60	57.79	0.0565106
2552.70	57.46	0.0560397
2572.80	57.12	0.0556404
2592.90	56.79	0.0552453
2613.00	56.45	0.0549065
2633.10	56.12	0.0546154
2653.20	55.78	0.0543365
2673.30	55.45	0.0540054
2693.40	55.11	0.0537441
2713.50	54.78	0.0534539
2733.60	54.44	0.0533261
2753.70	54.11	0.0530895
2773.80	53.77	0.0529736
2793.90	53.43	0.0528132
2814.00	53.10	0.0525920
2834.10	52.76	0.0524329
2854.20	52.43	0.0522163
2874.30	52.09	0.0520849
2894.40	51.76	0.0519752
2914.50	51.42	0.0518398
2934.60	51.09	0.0516577
2954.70	50.76	0.0515165
2974.80	50.42	0.0514795
2994.90	50.08	0.0513685
3015.00	49.75	0.0512268
3035.10	49.42	0.0511454
3055.20	49.08	0.0510546
3075.30	48.74	0.0509525
3095.40	48.41	0.0508811
3115.50	48.07	0.0507909
3135.60	47.74	0.0506892
3155.70	47.40	0.0507468
3175.80	47.07	0.0505318
3195.90	46.73	0.0505250
3216.00	46.40	0.0503342
3236.10	46.06	0.0503668
3256.20	45.73	0.0503227
3276.30	45.39	0.0501562
3296.40	45.06	0.0500357
3316.50	44.72	0.0501402
3336.60	45.22	2.14309
3356.70	44.58	1.80829
3376.80	43.74	0.128152
3396.90	43.38	0.0552832
3417.00	43.05	0.0510698
3437.10	42.71	0.0495337
3457.20	42.38	0.0488327
3477.30	42.04	0.0485507
3497.40	41.71	0.0483373
3517.50	41.37	0.0480628
3537.60	41.04	0.0477765
3557.70	40.70	0.0476044
3577.80	40.37	0.0474218
3597.90	40.03	0.0471207
3618.00	39.70	0.0471004
3638.10	39.36	0.0468851
3658.20	39.03	0.0468129
3678.30	38.69	0.0467005
3698.40	38.36	0.0465756
3718.50	38.02	0.0464324
3738.60	37.69	0.0463237
3758.70	37.35	0.0462423
3778.80	37.02	0.0462280
3798.90	36.68	0.0462245
3819.00	36.35	0.0460250
3839.10	36.01	0.0459143
3859.20	35.68	0.0458713
3879.30	35.34	0.0457689
3899.40	35.01	0.0456868
3919.50	34.67	0.0455394
3939.60	34.34	0.0454310
3959.70	34.00	0.0454233
3979.80	33.67	0.0453661
3999.90	33.33	0.0452801
4020.00	33.00	0.0451633
4040.10	32.66	0.0450318
4060.20	32.33	0.0450192
4080.30	31.99	0.0449246
4100.40	31.66	0.0447321
4120.50	31.32	0.0447018
4140.60	30.98	0.0446861
4160.70	30.65	0.0445268
4180.80	30.32	0.0444235
4200.90	29.98	0.0443270
4221.00	29.64	0.0442256
4241.10	29.31	0.0441748
4261.20	28.98	0.0440452
4281.30	28.64	0.0439831
4301.40	28.31	0.0439836
4321.50	27.97	0.0440209
4341.60	27.63	0.0438150
4361.70	27.30	0.0437711
4381.80	26.96	0.0436110
4401.90	26.63	0.0434970
4422.00	26.30	0.0434737
4442.10	25.96	0.0434215
4462.20	25.62	0.0433024
4482.30	25.29	0.0432629
4502.40	24.95	0.0433041
4522.50	24.62	0.0432005
4542.60	24.28	0.0431658
4562.70	23.95	0.0430699
4582.80	23.61	0.0430140
4602.90	23.28	0.0429336
4623.00	22.94	0.0428600
4643.10	22.61	0.0427928
4663.20	22.27	0.0426663
4683.30	21.94	0.0426685
4703.40	21.60	0.0426133
4723.50	21.27	0.0425347
4743.60	20.93	0.0425157
4763.70	20.60	0.0423929
4783.80	20.26	0.0423265
4803.90	19.93	0.0422963
4824.00	19.59	0.0422619
4844.10	19.26	0.0422072
4864.20	18.92	0.0420862
4884.30	18.59	0.0420589
4904.40	18.25	0.0418969
4924.50	17.92	0.0419331
4944.60	17.58	0.0418206
4964.70	17.25	0.0417720
4984.80	16.91	0.0417812
5004.90	16.58	0.0416869
5025.00	16.24	0.0415804
5045.10	15.91	0.0414886
5065.20	15.57	0.0414805
5085.30	15.24	0.0414175
5105.40	14.90	0.0413161
5125.50	14.57	0.0412478
5145.60	14.23	0.0411500
5165.70	13.90	0.0411433
5185.80	13.56	0.0410690
5205.90	13.23	0.0410748
5226.00	12.89	0.0409220
5246.10	12.56	0.0408723
5266.20	12.22	0.0408391
5286.30	11.89	0.0408219
5306.40	11.55	0.0407648
5326.50	11.22	0.0407225
5346.60	10.88	0.0406428
5366.70	10.55	0.0406301
5386.80	10.21	0.0405097
5406.90	9.88	0.0404625
5427.00	9.54	0.0404426
5447.10	9.21	0.0403489
5467.20	8.87	0.0402989
5487.30	8.54	0.0401946
5507.40	8.20	0.0400837
5527.50	7.87	0.0400766
5547.60	7.53	0.0399939
5567.70	7.20	0.0400121
5587.80	6.86	0.0397668
5607.90	6.53	0.0397887
5628.00	6.19	0.0397265
5648.10	5.86	0.0396380
5668.20	5.52	0.0396263
5688.30	5.19	0.0396262
5708.40	4.85	0.0394816
5728.50	4.52	0.0394285
5748.60	4.18	0.0393277
5768.70	3.85	0.0393883
5788.80	3.51	0.0393155
5808.90	3.18	0.0393652
5829.00	2.84	0.0392983
5849.10	2.51	0.0393098
5869.20	2.17	0.0392156
5889.30	1.84	0.0392063
5909.40	1.50	0.0392159
5929.50	1.16	0.0392475
5949.60	0.83	0.0391636
5969.70	0.50	0.0391574
5989.80	0.16	0.0391876
6000.00	-0.01	0.0391265