File: Differential scanning calorimetry/12OCB Squalane/12OCB SqA wt fraction 150.txt
Filename	12OCBSqA150
Instrument name	DSC2A-00101 (192.168.10.4)
Operator	Yuma
rundate	3/11/2021
Sample name	12OCBSqA150
proceduresegments	Data Off ; Equilibrate 150.00 °C; Isothermal 10.0 min; Equilibrate 100.00 °C; Isothermal 5.0 min; Data On ; Ramp 1.00 °C/min to 0.00 °C; Ramp 5.00 °C/min to 150.00 °C; Data Off ; Isothermal 10.0 min; Modulate Temperature 1.00 °C for 60.0 s; Equilibrate 100.00 °C; Isothermal 10.0 min; Data On ; Ramp 1.00 °C/min to 0.00 °C; Data Off ; Equilibrate 0.00 °C; Modulate Temperature 1.00 °C for 60.0 s; Isothermal 5.0 min; Data On ; Ramp 3.00 °C/min to 100.00 °C; Jump 30.00 °C
[step]
Ramp 1.00 °C/min to 0.00 °C
Time	Temperature	Heat Flow (Normalized)
s	°C	W/g
0.00000	99.85	0.0101372
20.0000	99.66	0.0240265
40.0000	99.33	0.0340213
60.0000	99.00	0.0364460
80.0000	98.67	0.0371117
100.000	98.34	0.0373117
120.000	98.00	0.0373200
140.000	97.67	0.0373278
160.000	97.34	0.0372955
180.000	97.00	0.0372566
200.000	96.67	0.0372553
220.000	96.34	0.0372607
240.000	96.00	0.0372360
260.000	95.67	0.0372482
280.000	95.34	0.0371875
300.000	95.00	0.0371895
320.000	94.67	0.0371539
340.000	94.34	0.0371531
360.000	94.00	0.0371188
380.000	93.67	0.0371054
400.000	93.34	0.0371084
420.000	93.00	0.0370609
440.000	92.67	0.0370858
460.000	92.34	0.0371195
480.000	92.00	0.0370261
500.000	91.67	0.0370656
520.000	91.33	0.0370215
540.000	91.00	0.0370052
560.000	90.67	0.0369976
580.000	90.33	0.0370526
600.000	90.00	0.0370022
620.000	89.67	0.0369299
640.000	89.34	0.0369386
660.000	89.00	0.0369678
680.000	88.67	0.0369558
700.000	88.33	0.0369944
720.000	88.00	0.0369349
740.000	87.67	0.0369490
760.000	87.34	0.0369554
780.000	87.00	0.0369513
800.000	86.67	0.0369404
820.000	86.33	0.0369734
840.000	86.00	0.0369810
860.000	85.67	0.0370023
880.000	85.34	0.0369179
900.000	85.00	0.0370264
920.000	84.67	0.0370679
940.000	84.34	0.0370548
960.000	84.00	0.0370130
980.000	83.67	0.0370083
1000.00	83.33	0.0370448
1020.00	83.00	0.0370820
1040.00	82.67	0.0371511
1060.00	82.34	0.0371488
1080.00	82.00	0.0373142
1100.00	81.67	0.0372786
1120.00	81.34	0.0373743
1140.00	81.00	0.0373805
1160.00	80.67	0.0373916
1180.00	80.34	0.0374194
1200.00	80.00	0.0375511
1220.00	79.67	0.0376066
1240.00	79.34	0.0377232
1260.00	79.00	0.0378168
1280.00	78.67	0.0378930
1300.00	78.34	0.0379526
1320.00	78.00	0.0380468
1340.00	77.67	0.0394530
1360.00	77.35	0.0549404
1380.00	77.03	0.0942633
1400.00	76.69	0.0848083
1420.00	76.35	0.0755602
1440.00	76.02	0.0692536
1460.00	75.68	0.0667949
1480.00	75.35	0.0645994
1500.00	75.01	0.0627414
1520.00	74.68	0.0609698
1540.00	74.35	0.0592879
1560.00	74.01	0.0577527
1580.00	73.68	0.0561813
1600.00	73.34	0.0548564
1620.00	73.01	0.0536072
1640.00	72.68	0.0525203
1660.00	72.34	0.0514577
1680.00	72.01	0.0505609
1700.00	71.67	0.0496241
1720.00	71.34	0.0487059
1740.00	71.01	0.0478791
1760.00	70.67	0.0470937
1780.00	70.34	0.0463390
1800.00	70.01	0.0456059
1820.00	69.67	0.0449088
1840.00	69.34	0.0443364
1860.00	69.01	0.0437061
1880.00	68.67	0.0430711
1900.00	68.34	0.0425797
1920.00	68.00	0.0420925
1940.00	67.67	0.0415803
1960.00	67.34	0.0411307
1980.00	67.00	0.0406578
2000.00	66.67	0.0402969
2020.00	66.34	0.0398742
2040.00	66.00	0.0395098
2060.00	65.67	0.0391389
2080.00	65.34	0.0387634
2100.00	65.00	0.0384416
2120.00	64.67	0.0380469
2140.00	64.34	0.0377585
2160.00	64.00	0.0374995
2180.00	63.67	0.0373164
2200.00	63.34	0.0373601
2220.00	63.00	0.0371277
2240.00	62.67	0.0369850
2260.00	62.33	0.0368479
2280.00	62.00	0.0366960
2300.00	61.67	0.0365464
2320.00	61.34	0.0362937
2340.00	61.00	0.0362221
2360.00	60.67	0.0360375
2380.00	60.33	0.0359322
2400.00	60.00	0.0358333
2420.00	59.67	0.0357237
2440.00	59.33	0.0356648
2460.00	59.00	0.0355526
2480.00	58.67	0.0354988
2500.00	58.33	0.0354443
2520.00	58.00	0.0353722
2540.00	57.67	0.0352453
2560.00	57.33	0.0351689
2580.00	57.00	0.0351465
2600.00	56.67	0.0350493
2620.00	56.33	0.0349744
2640.00	56.00	0.0349352
2660.00	55.67	0.0348537
2680.00	55.33	0.0348058
2700.00	55.00	0.0347384
2720.00	54.67	0.0347340
2740.00	54.33	0.0347220
2760.00	54.00	0.0346540
2780.00	53.67	0.0346179
2800.00	53.33	0.0345747
2820.00	53.00	0.0345050
2840.00	52.67	0.0344462
2860.00	52.33	0.0343902
2880.00	52.00	0.0344068
2900.00	51.67	0.0342715
2920.00	51.33	0.0342524
2940.00	51.00	0.0342822
2960.00	50.67	0.0341134
2980.00	50.33	0.0341235
3000.00	50.00	0.0340646
3020.00	49.67	0.0340100
3040.00	49.33	0.0339996
3060.00	49.00	0.0340064
3080.00	48.66	0.0339596
3100.00	48.33	0.0339652
3120.00	48.00	0.0337862
3140.00	48.90	2.33054
3160.00	48.69	2.51012
3180.00	47.12	0.341501
3200.00	46.67	0.0501742
3220.00	46.33	0.0362303
3240.00	46.00	0.0333256
3260.00	45.66	0.0320978
3280.00	45.33	0.0314183
3300.00	45.00	0.0309920
3320.00	44.66	0.0306384
3340.00	44.33	0.0304110
3360.00	44.00	0.0302103
3380.00	43.66	0.0300285
3400.00	43.33	0.0298729
3420.00	43.00	0.0296903
3440.00	42.66	0.0295151
3460.00	42.33	0.0293888
3480.00	42.00	0.0292050
3500.00	41.66	0.0291201
3520.00	41.33	0.0290557
3540.00	41.00	0.0288556
3560.00	40.66	0.0288159
3580.00	40.33	0.0287165
3600.00	40.00	0.0286434
3620.00	39.66	0.0285403
3640.00	39.33	0.0284548
3660.00	39.00	0.0283771
3680.00	38.66	0.0283172
3700.00	38.33	0.0281964
3720.00	38.00	0.0280780
3740.00	37.66	0.0279700
3760.00	37.33	0.0278341
3780.00	36.99	0.0278017
3800.00	36.66	0.0277091
3820.00	36.33	0.0276133
3840.00	36.00	0.0275572
3860.00	35.66	0.0274718
3880.00	35.33	0.0274006
3900.00	34.99	0.0273516
3920.00	34.66	0.0272301
3940.00	34.33	0.0271885
3960.00	33.99	0.0271263
3980.00	33.66	0.0270465
4000.00	33.33	0.0269362
4020.00	33.00	0.0269216
4040.00	32.66	0.0268617
4060.00	32.33	0.0268156
4080.00	32.00	0.0267289
4100.00	31.66	0.0267178
4120.00	31.33	0.0266615
4140.00	30.99	0.0266171
4160.00	30.66	0.0265658
4180.00	30.33	0.0264696
4200.00	29.99	0.0264335
4220.00	29.66	0.0264236
4240.00	29.33	0.0263846
4260.00	28.99	0.0263706
4280.00	28.66	0.0264092
4300.00	28.33	0.0268681
4320.00	27.99	0.0266152
4340.00	27.66	0.0263895
4360.00	27.33	0.0263015
4380.00	26.99	0.0262461
4400.00	26.66	0.0261017
4420.00	26.33	0.0260535
4440.00	25.99	0.0259732
4460.00	25.66	0.0258602
4480.00	25.33	0.0260936
4500.00	24.99	0.0263103
4520.00	24.66	0.0257857
4540.00	24.33	0.0255134
4560.00	23.99	0.0253801
4580.00	23.66	0.0253039
4600.00	23.33	0.0252496
4620.00	22.99	0.0251751
4640.00	22.66	0.0251425
4660.00	22.33	0.0250753
4680.00	21.99	0.0250714
4700.00	21.66	0.0249346
4720.00	21.32	0.0248738
4740.00	20.99	0.0247557
4760.00	20.66	0.0247348
4780.00	20.33	0.0246988
4800.00	19.99	0.0246909
4820.00	19.66	0.0246548
4840.00	19.32	0.0245881
4860.00	18.99	0.0245358
4880.00	18.66	0.0244398
4900.00	18.32	0.0243932
4920.00	17.99	0.0242932
4940.00	17.66	0.0242834
4960.00	17.33	0.0242396
4980.00	16.99	0.0241893
5000.00	16.66	0.0241261
5020.00	16.32	0.0240752
5040.00	15.99	0.0239807
5060.00	15.66	0.0240047
5080.00	15.32	0.0238894
5100.00	14.99	0.0238962
5120.00	14.66	0.0238057
5140.00	14.32	0.0237512
5160.00	13.99	0.0236492
5180.00	13.66	0.0236170
5200.00	13.32	0.0236084
5220.00	12.99	0.0235118
5240.00	12.66	0.0234498
5260.00	12.32	0.0234538
5280.00	11.99	0.0233854
5300.00	11.66	0.0233811
5320.00	11.32	0.0233412
5340.00	10.99	0.0231684
5360.00	10.66	0.0230858
5380.00	10.32	0.0230833
5400.00	9.99	0.0229830
5420.00	9.66	0.0229395
5440.00	9.32	0.0229052
5460.00	8.99	0.0228501
5480.00	8.66	0.0227912
5500.00	8.32	0.0227062
5520.00	7.99	0.0226852
5540.00	7.66	0.0226686
5560.00	7.32	0.0225844
5580.00	6.99	0.0225157
5600.00	6.66	0.0224529
5620.00	6.32	0.0223436
5640.00	5.99	0.0223455
5660.00	5.66	0.0222398
5680.00	5.32	0.0222204
5700.00	4.99	0.0221954
5720.00	4.66	0.0221815
5740.00	4.32	0.0220894
5760.00	3.99	0.0220806
5780.00	3.66	0.0220286
5800.00	3.32	0.0219658
5820.00	2.99	0.0219474
5840.00	2.66	0.0219234
5860.00	2.32	0.0219482
5880.00	1.99	0.0218900
5900.00	1.65	0.0218972
5920.00	1.32	0.0217930
5940.00	0.99	0.0217999
5960.00	0.66	0.0218488
5980.00	0.32	0.0218297
5999.90	-0.01	0.0217520