File: Differential scanning calorimetry/12OCB Squalane/12OCB SqA wt fraction 288.txt
Filename	12OCBSqA288
Instrument name	DSC2A-00101 (192.168.10.4)
Operator	Yuma
rundate	3/11/2021
Sample name	12OCBSqA288
proceduresegments	Data Off ; Equilibrate 150.00 °C; Isothermal 10.0 min; Equilibrate 100.00 °C; Isothermal 5.0 min; Data On ; Ramp 1.00 °C/min to 0.00 °C; Ramp 5.00 °C/min to 150.00 °C; Data Off ; Isothermal 10.0 min; Modulate Temperature 1.00 °C for 60.0 s; Equilibrate 100.00 °C; Isothermal 10.0 min; Data On ; Ramp 1.00 °C/min to 0.00 °C; Data Off ; Equilibrate 0.00 °C; Modulate Temperature 1.00 °C for 60.0 s; Isothermal 5.0 min; Data On ; Ramp 3.00 °C/min to 100.00 °C; Jump 30.00 °C
[step]
Ramp 1.00 °C/min to 0.00 °C
Time	Temperature	Heat Flow (Normalized)
s	°C	W/g
0.00000	99.85	0.0187943
20.0000	99.65	0.0241002
40.0000	99.32	0.0353972
60.0000	98.99	0.0389945
80.0000	98.66	0.0399609
100.000	98.33	0.0401470
120.000	97.99	0.0401241
140.000	97.66	0.0401741
160.000	97.33	0.0401240
180.000	96.99	0.0401297
200.000	96.66	0.0401057
220.000	96.33	0.0399924
240.000	95.99	0.0400120
260.000	95.66	0.0400912
280.000	95.33	0.0399830
300.000	94.99	0.0399484
320.000	94.66	0.0399253
340.000	94.33	0.0399211
360.000	93.99	0.0398532
380.000	93.66	0.0398455
400.000	93.33	0.0398244
420.000	92.99	0.0397306
440.000	92.66	0.0397200
460.000	92.33	0.0396593
480.000	91.99	0.0396985
500.000	91.66	0.0397022
520.000	91.33	0.0397089
540.000	90.99	0.0397220
560.000	90.66	0.0397382
580.000	90.33	0.0396262
600.000	89.99	0.0396456
620.000	89.66	0.0396191
640.000	89.33	0.0395975
660.000	88.99	0.0396338
680.000	88.66	0.0395905
700.000	88.33	0.0395717
720.000	87.99	0.0394944
740.000	87.66	0.0394885
760.000	87.33	0.0394746
780.000	86.99	0.0394988
800.000	86.66	0.0394649
820.000	86.33	0.0395095
840.000	85.99	0.0396003
860.000	85.66	0.0395717
880.000	85.33	0.0394720
900.000	84.99	0.0394422
920.000	84.66	0.0394806
940.000	84.33	0.0394138
960.000	83.99	0.0394708
980.000	83.66	0.0394123
1000.00	83.33	0.0394531
1020.00	82.99	0.0393619
1040.00	82.66	0.0394057
1060.00	82.33	0.0394700
1080.00	81.99	0.0393222
1100.00	81.66	0.0393734
1120.00	81.33	0.0394085
1140.00	80.99	0.0394456
1160.00	80.66	0.0394175
1180.00	80.33	0.0393453
1200.00	79.99	0.0393762
1220.00	79.66	0.0394377
1240.00	79.33	0.0394488
1260.00	78.99	0.0394500
1280.00	78.66	0.0394906
1300.00	78.33	0.0394576
1320.00	77.99	0.0394847
1340.00	77.66	0.0394856
1360.00	77.33	0.0394464
1380.00	76.99	0.0395002
1400.00	76.66	0.0396173
1420.00	76.33	0.0395973
1440.00	75.99	0.0396409
1460.00	75.66	0.0396906
1480.00	75.33	0.0397701
1500.00	74.99	0.0397382
1520.00	74.66	0.0397057
1540.00	74.33	0.0397934
1560.00	73.99	0.0398990
1580.00	73.66	0.0400080
1600.00	73.33	0.0400912
1620.00	72.99	0.0402852
1640.00	72.66	0.0404194
1660.00	72.33	0.0404724
1680.00	71.99	0.0407748
1700.00	71.66	0.0457779
1720.00	71.34	0.0843085
1740.00	71.00	0.0739349
1760.00	70.67	0.0682649
1780.00	70.33	0.0660034
1800.00	70.00	0.0642531
1820.00	69.67	0.0630498
1840.00	69.33	0.0622090
1860.00	69.00	0.0607499
1880.00	68.67	0.0597137
1900.00	68.33	0.0588167
1920.00	68.00	0.0577089
1940.00	67.66	0.0567743
1960.00	67.33	0.0558974
1980.00	67.00	0.0551219
2000.00	66.66	0.0542847
2020.00	66.33	0.0535362
2040.00	66.00	0.0527822
2060.00	65.66	0.0520640
2080.00	65.33	0.0513794
2100.00	65.00	0.0506429
2120.00	64.66	0.0500284
2140.00	64.33	0.0492593
2160.00	64.00	0.0485840
2180.00	63.66	0.0480106
2200.00	63.33	0.0473720
2220.00	62.99	0.0468487
2240.00	62.66	0.0463117
2260.00	62.33	0.0457418
2280.00	61.99	0.0452587
2300.00	61.66	0.0447410
2320.00	61.33	0.0442345
2340.00	60.99	0.0438104
2360.00	60.66	0.0434410
2380.00	60.33	0.0430219
2400.00	59.99	0.0426156
2420.00	59.66	0.0423645
2440.00	59.33	0.0419680
2460.00	58.99	0.0417201
2480.00	58.66	0.0414053
2500.00	58.33	0.0412344
2520.00	57.99	0.0409091
2540.00	57.66	0.0407323
2560.00	57.33	0.0404811
2580.00	56.99	0.0403237
2600.00	56.66	0.0401790
2620.00	56.33	0.0401290
2640.00	55.99	0.0398816
2660.00	55.66	0.0396744
2680.00	55.33	0.0395742
2700.00	54.99	0.0395237
2720.00	54.66	0.0393462
2740.00	54.32	0.0392214
2760.00	53.99	0.0391724
2780.00	53.66	0.0391328
2800.00	53.33	0.0389347
2820.00	52.99	0.0389862
2840.00	52.66	0.0388576
2860.00	52.33	0.0387090
2880.00	51.99	0.0386863
2900.00	51.66	0.0386190
2920.00	51.33	0.0385761
2940.00	50.99	0.0384612
2960.00	50.66	0.0384022
2980.00	50.33	0.0383138
3000.00	49.99	0.0382394
3020.00	49.66	0.0380907
3040.00	49.33	0.0381168
3060.00	48.99	0.0382086
3080.00	48.66	0.0380786
3100.00	48.32	0.0379875
3120.00	47.99	0.0378987
3140.00	47.66	0.0388358
3160.00	47.35	-0.0226741
3180.00	47.65	2.26225
3200.00	46.99	1.49989
3220.00	46.34	0.0964986
3240.00	45.99	0.0473296
3260.00	45.66	0.0432224
3280.00	45.32	0.0391039
3300.00	44.99	0.0374311
3320.00	44.66	0.0368129
3340.00	44.32	0.0367103
3360.00	43.99	0.0359956
3380.00	43.66	0.0357664
3400.00	43.32	0.0354791
3420.00	42.99	0.0353330
3440.00	42.66	0.0350860
3460.00	42.32	0.0350208
3480.00	41.99	0.0348875
3500.00	41.66	0.0346806
3520.00	41.32	0.0345567
3540.00	40.99	0.0343808
3560.00	40.66	0.0342897
3580.00	40.32	0.0340825
3600.00	39.99	0.0339848
3620.00	39.66	0.0339385
3640.00	39.32	0.0338524
3660.00	38.99	0.0337056
3680.00	38.66	0.0336140
3700.00	38.32	0.0335477
3720.00	37.99	0.0335053
3740.00	37.66	0.0333894
3760.00	37.32	0.0333476
3780.00	36.99	0.0332221
3800.00	36.66	0.0332415
3820.00	36.32	0.0331386
3840.00	35.99	0.0331396
3860.00	35.66	0.0330443
3880.00	35.32	0.0330251
3900.00	34.99	0.0329650
3920.00	34.65	0.0328928
3940.00	34.32	0.0327675
3960.00	33.99	0.0326857
3980.00	33.66	0.0325649
4000.00	33.32	0.0325797
4020.00	32.99	0.0324955
4040.00	32.65	0.0323681
4060.00	32.32	0.0322700
4080.00	31.99	0.0323198
4100.00	31.66	0.0321963
4120.00	31.32	0.0320489
4140.00	30.99	0.0320024
4160.00	30.65	0.0319282
4180.00	30.32	0.0318926
4200.00	29.99	0.0317715
4220.00	29.65	0.0317249
4240.00	29.32	0.0317008
4260.00	28.99	0.0315813
4280.00	28.65	0.0315226
4300.00	28.32	0.0314416
4320.00	27.99	0.0314090
4340.00	27.66	0.0313071
4360.00	27.32	0.0312674
4380.00	26.99	0.0312094
4400.00	26.65	0.0310759
4420.00	26.32	0.0311363
4440.00	25.99	0.0309987
4460.00	25.65	0.0307689
4480.00	25.32	0.0307257
4500.00	24.99	0.0307930
4520.00	24.65	0.0305690
4540.00	24.32	0.0305532
4560.00	23.99	0.0304284
4580.00	23.65	0.0304033
4600.00	23.32	0.0303468
4620.00	22.99	0.0304036
4640.00	22.65	0.0303586
4660.00	22.32	0.0302504
4680.00	21.99	0.0301795
4700.00	21.65	0.0301711
4720.00	21.32	0.0300951
4740.00	20.99	0.0300282
4760.00	20.65	0.0299420
4780.00	20.32	0.0298423
4800.00	19.99	0.0298027
4820.00	19.65	0.0297069
4840.00	19.32	0.0296551
4860.00	18.99	0.0296632
4880.00	18.65	0.0295381
4900.00	18.32	0.0294216
4920.00	17.99	0.0293528
4940.00	17.65	0.0293697
4960.00	17.32	0.0292000
4980.00	16.99	0.0291971
5000.00	16.65	0.0291754
5020.00	16.32	0.0292280
5040.00	15.99	0.0290674
5060.00	15.65	0.0290330
5080.00	15.32	0.0289322
5100.00	14.99	0.0288173
5120.00	14.65	0.0288179
5140.00	14.32	0.0287567
5160.00	13.99	0.0286657
5180.00	13.65	0.0286972
5200.00	13.32	0.0286288
5220.00	12.98	0.0284645
5240.00	12.65	0.0285062
5260.00	12.32	0.0284401
5280.00	11.98	0.0283442
5300.00	11.65	0.0283743
5320.00	11.32	0.0281688
5340.00	10.98	0.0281189
5360.00	10.65	0.0280619
5380.00	10.32	0.0279995
5400.00	9.98	0.0279313
5420.00	9.65	0.0279567
5440.00	9.32	0.0278497
5460.00	8.98	0.0278325
5480.00	8.65	0.0277266
5500.00	8.32	0.0277656
5520.00	7.98	0.0276691
5540.00	7.65	0.0275749
5560.00	7.32	0.0274370
5580.00	6.99	0.0272846
5600.00	6.65	0.0272498
5620.00	6.32	0.0271899
5640.00	5.98	0.0271407
5660.00	5.65	0.0270518
5680.00	5.32	0.0269816
5700.00	4.98	0.0268882
5720.00	4.65	0.0268849
5740.00	4.32	0.0267929
5760.00	3.98	0.0268217
5780.00	3.65	0.0268171
5800.00	3.32	0.0267634
5820.00	2.98	0.0267882
5840.00	2.65	0.0267028
5860.00	2.32	0.0267565
5880.00	1.98	0.0267296
5900.00	1.65	0.0267044
5920.00	1.32	0.0267219
5940.00	0.98	0.0267314
5960.00	0.65	0.0267724
5980.00	0.32	0.0268031
5999.90	-0.01	0.0267946