File: Differential scanning calorimetry/12OCB Squalane/12OCB SqA wt fraction 095.txt
Filename	12OCBSqA095
Instrument name	DSC2A-00101 (192.168.10.4)
Operator	Yuma
rundate	3/13/2021
Sample name	12OCBSqA095
proceduresegments	Data Off ; Equilibrate 150.00 °C; Isothermal 10.0 min; Equilibrate 100.00 °C; Isothermal 5.0 min; Data On ; Ramp 1.00 °C/min to 0.00 °C; Ramp 5.00 °C/min to 150.00 °C; Data Off ; Isothermal 10.0 min; Modulate Temperature 1.00 °C for 60.0 s; Equilibrate 100.00 °C; Isothermal 10.0 min; Data On ; Ramp 1.00 °C/min to 0.00 °C; Data Off ; Equilibrate 0.00 °C; Modulate Temperature 1.00 °C for 60.0 s; Isothermal 5.0 min; Data On ; Ramp 3.00 °C/min to 100.00 °C; Jump 30.00 °C
[step]
Ramp 1.00 °C/min to 0.00 °C
Time	Temperature	Heat Flow (Normalized)
s	°C	W/g
0.00000	99.85	6.49621e-3
20.0000	99.67	0.0237706
40.0000	99.35	0.0360403
60.0000	99.02	0.0379213
80.0000	98.69	0.0386558
100.000	98.35	0.0388516
120.000	98.02	0.0389189
140.000	97.69	0.0389115
160.000	97.35	0.0389205
180.000	97.02	0.0389440
200.000	96.69	0.0389447
220.000	96.35	0.0389742
240.000	96.02	0.0389448
260.000	95.69	0.0389624
280.000	95.36	0.0389142
300.000	95.02	0.0389181
320.000	94.69	0.0388973
340.000	94.36	0.0389279
360.000	94.02	0.0389083
380.000	93.69	0.0389408
400.000	93.36	0.0389713
420.000	93.02	0.0389696
440.000	92.69	0.0389514
460.000	92.36	0.0389660
480.000	92.02	0.0389611
500.000	91.69	0.0389876
520.000	91.36	0.0389786
540.000	91.02	0.0389918
560.000	90.69	0.0390244
580.000	90.36	0.0389731
600.000	90.02	0.0390365
620.000	89.69	0.0390955
640.000	89.36	0.0390810
660.000	89.02	0.0391615
680.000	88.69	0.0391619
700.000	88.36	0.0392122
720.000	88.02	0.0392033
740.000	87.69	0.0392198
760.000	87.36	0.0392788
780.000	87.02	0.0393270
800.000	86.69	0.0393713
820.000	86.36	0.0393890
840.000	86.02	0.0393858
860.000	85.69	0.0395190
880.000	85.36	0.0395017
900.000	85.02	0.0395841
920.000	84.69	0.0396772
940.000	84.36	0.0397554
960.000	84.02	0.0398332
980.000	83.69	0.0399091
1000.00	83.36	0.0399562
1020.00	83.03	0.0400597
1040.00	82.69	0.0406979
1060.00	82.37	0.0451685
1080.00	82.05	0.0643349
1100.00	81.72	0.0683925
1120.00	81.39	0.0690700
1140.00	81.05	0.0676053
1160.00	80.72	0.0669670
1180.00	80.39	0.0679280
1200.00	80.06	0.0697128
1220.00	79.73	0.0740421
1240.00	79.39	0.0769190
1260.00	79.06	0.0751694
1280.00	78.72	0.0719494
1300.00	78.38	0.0683395
1320.00	78.05	0.0648492
1340.00	77.71	0.0620397
1360.00	77.37	0.0597094
1380.00	77.04	0.0576185
1400.00	76.71	0.0558477
1420.00	76.37	0.0541626
1440.00	76.04	0.0528240
1460.00	75.70	0.0516652
1480.00	75.37	0.0506652
1500.00	75.03	0.0496906
1520.00	74.70	0.0487719
1540.00	74.36	0.0479179
1560.00	74.03	0.0471576
1580.00	73.70	0.0464669
1600.00	73.36	0.0458091
1620.00	73.03	0.0451913
1640.00	72.69	0.0445889
1660.00	72.36	0.0440605
1680.00	72.03	0.0435547
1700.00	71.69	0.0431086
1720.00	71.36	0.0426529
1740.00	71.03	0.0422939
1760.00	70.69	0.0419017
1780.00	70.36	0.0415407
1800.00	70.02	0.0412585
1820.00	69.69	0.0408482
1840.00	69.36	0.0406041
1860.00	69.02	0.0403355
1880.00	68.69	0.0401056
1900.00	68.36	0.0398237
1920.00	68.03	0.0395964
1940.00	67.69	0.0394076
1960.00	67.36	0.0392512
1980.00	67.02	0.0390360
2000.00	66.69	0.0388779
2020.00	66.36	0.0387400
2040.00	66.02	0.0386228
2060.00	65.69	0.0385137
2080.00	65.36	0.0384065
2100.00	65.02	0.0382719
2120.00	64.69	0.0381539
2140.00	64.36	0.0380928
2160.00	64.02	0.0380086
2180.00	63.69	0.0378903
2200.00	63.36	0.0379272
2220.00	63.02	0.0378459
2240.00	62.69	0.0377441
2260.00	62.36	0.0377078
2280.00	62.02	0.0376848
2300.00	61.69	0.0376075
2320.00	61.35	0.0375681
2340.00	61.02	0.0375345
2360.00	60.69	0.0375357
2380.00	60.36	0.0374691
2400.00	60.02	0.0373953
2420.00	59.69	0.0373720
2440.00	59.35	0.0373409
2460.00	59.02	0.0372612
2480.00	58.69	0.0372329
2500.00	58.36	0.0372091
2520.00	58.02	0.0371991
2540.00	57.69	0.0371586
2560.00	57.35	0.0370833
2580.00	57.02	0.0371131
2600.00	56.69	0.0370984
2620.00	56.35	0.0370259
2640.00	56.02	0.0369806
2660.00	55.69	0.0369162
2680.00	55.36	0.0368962
2700.00	55.02	0.0368755
2720.00	54.69	0.0368809
2740.00	54.35	0.0368457
2760.00	54.02	0.0367454
2780.00	53.69	0.0367420
2800.00	53.35	0.0367635
2820.00	53.02	0.0366503
2840.00	52.69	0.0366462
2860.00	52.35	0.0366570
2880.00	52.02	0.0365903
2900.00	51.69	0.0365532
2920.00	51.35	0.0365410
2940.00	51.02	0.0365086
2960.00	50.69	0.0364174
2980.00	50.35	0.0364605
3000.00	50.02	0.0364073
3020.00	49.69	0.0363883
3040.00	49.35	0.0363584
3060.00	49.02	0.0363497
3080.00	48.69	0.0363302
3100.00	48.35	0.0362537
3120.00	48.02	0.0362385
3140.00	47.69	0.0362189
3160.00	47.35	0.0363224
3180.00	47.02	0.0361848
3200.00	46.69	0.0360887
3220.00	46.35	0.0360484
3240.00	46.02	0.0360729
3260.00	45.69	0.0360940
3280.00	45.35	0.0359901
3300.00	45.02	0.0359921
3320.00	46.91	2.06314
3340.00	48.10	3.84168
3360.00	44.33	0.400034
3380.00	43.71	0.0610561
3400.00	43.35	0.0358829
3420.00	43.02	0.0331883
3440.00	42.68	0.0319392
3460.00	42.35	0.0314439
3480.00	42.01	0.0311378
3500.00	41.68	0.0308968
3520.00	41.35	0.0307363
3540.00	41.02	0.0313394
3560.00	40.68	0.0317752
3580.00	40.35	0.0310800
3600.00	40.01	0.0304909
3620.00	39.68	0.0302329
3640.00	39.35	0.0300784
3660.00	39.01	0.0299886
3680.00	38.68	0.0300130
3700.00	38.35	0.0298866
3720.00	38.01	0.0297540
3740.00	37.68	0.0296654
3760.00	37.35	0.0296461
3780.00	37.01	0.0295597
3800.00	36.68	0.0295283
3820.00	36.35	0.0294741
3840.00	36.01	0.0293292
3860.00	35.68	0.0292974
3880.00	35.35	0.0292531
3900.00	35.01	0.0291511
3920.00	34.68	0.0291371
3940.00	34.35	0.0290725
3960.00	34.01	0.0289881
3980.00	33.68	0.0289769
4000.00	33.35	0.0289332
4020.00	33.01	0.0288559
4040.00	32.68	0.0287626
4060.00	32.34	0.0287149
4080.00	32.01	0.0286295
4100.00	31.68	0.0285622
4120.00	31.35	0.0285109
4140.00	31.01	0.0284888
4160.00	30.68	0.0284730
4180.00	30.35	0.0284006
4200.00	30.01	0.0282957
4220.00	29.68	0.0282813
4240.00	29.35	0.0282496
4260.00	29.01	0.0282011
4280.00	28.68	0.0281028
4300.00	28.34	0.0280973
4320.00	28.01	0.0280394
4340.00	27.68	0.0280036
4360.00	27.34	0.0279181
4380.00	27.01	0.0278904
4400.00	26.68	0.0278306
4420.00	26.34	0.0277754
4440.00	26.01	0.0277157
4460.00	25.68	0.0276877
4480.00	25.34	0.0276710
4500.00	25.01	0.0276450
4520.00	24.68	0.0275073
4540.00	24.34	0.0274026
4560.00	24.01	0.0273990
4580.00	23.68	0.0273580
4600.00	23.34	0.0273361
4620.00	23.01	0.0272728
4640.00	22.68	0.0272229
4660.00	22.34	0.0271755
4680.00	22.01	0.0271244
4700.00	21.68	0.0271046
4720.00	21.34	0.0270934
4740.00	21.01	0.0270274
4760.00	20.68	0.0269507
4780.00	20.34	0.0269154
4800.00	20.01	0.0268427
4820.00	19.68	0.0267295
4840.00	19.34	0.0267305
4860.00	19.01	0.0266906
4880.00	18.67	0.0266744
4900.00	18.34	0.0266053
4920.00	18.01	0.0265810
4940.00	17.67	0.0265184
4960.00	17.34	0.0264787
4980.00	17.01	0.0264188
5000.00	16.68	0.0263903
5020.00	16.34	0.0263235
5040.00	16.01	0.0263022
5060.00	15.68	0.0262567
5080.00	15.34	0.0262219
5100.00	15.01	0.0261340
5120.00	14.67	0.0260814
5140.00	14.34	0.0259916
5160.00	14.01	0.0260386
5180.00	13.67	0.0259329
5200.00	13.34	0.0258817
5220.00	13.01	0.0258408
5240.00	12.67	0.0257982
5260.00	12.34	0.0257441
5280.00	12.01	0.0257339
5300.00	11.67	0.0256796
5320.00	11.34	0.0256513
5340.00	11.01	0.0255954
5360.00	10.67	0.0255381
5380.00	10.34	0.0254908
5400.00	10.01	0.0254545
5420.00	9.67	0.0254358
5440.00	9.34	0.0253988
5460.00	9.01	0.0253468
5480.00	8.67	0.0252859
5500.00	8.34	0.0251847
5520.00	8.01	0.0251499
5540.00	7.67	0.0251100
5560.00	7.34	0.0250417
5580.00	7.01	0.0249719
5600.00	6.67	0.0249477
5620.00	6.34	0.0248951
5640.00	6.01	0.0248956
5660.00	5.67	0.0248172
5680.00	5.34	0.0247322
5700.00	5.01	0.0247303
5720.00	4.67	0.0247253
5740.00	4.34	0.0246833
5760.00	4.01	0.0246868
5780.00	3.67	0.0246476
5800.00	3.34	0.0245467
5820.00	3.01	0.0245095
5840.00	2.67	0.0244963
5860.00	2.34	0.0244508
5880.00	2.00	0.0244537
5900.00	1.67	0.0243836
5920.00	1.34	0.0243525
5940.00	1.00	0.0243262
5960.00	0.67	0.0243169
5980.00	0.34	0.0242854
5999.90	0.01	0.0242514