File: Differential scanning calorimetry/12OCB Squalane/12OCB SqA wt fraction 603.txt
Filename	12OCBSqA603
Instrument name	DSC2A-00101 (192.168.10.4)
Operator	Yuma
rundate	4/12/2021
Sample name	12OCBSqA603
proceduresegments	Data Off ; Equilibrate 150.00 °C; Isothermal 10.0 min; Equilibrate 100.00 °C; Isothermal 5.0 min; Data On ; Ramp 1.00 °C/min to 0.00 °C; Ramp 5.00 °C/min to 150.00 °C; Data Off ; Isothermal 10.0 min; Modulate Temperature 1.00 °C for 60.0 s; Equilibrate 100.00 °C; Isothermal 10.0 min; Data On ; Ramp 1.00 °C/min to 0.00 °C; Data Off ; Equilibrate 0.00 °C; Modulate Temperature 1.00 °C for 60.0 s; Isothermal 5.0 min; Data On ; Ramp 3.00 °C/min to 100.00 °C; Jump 30.00 °C
[step]
Ramp 1.00 °C/min to 0.00 °C
Time	Temperature	Heat Flow (Normalized)
s	°C	W/g
0.00000	99.85	-2.35758e-3
20.0000	99.67	0.0162207
40.0000	99.35	0.0290486
60.0000	99.02	0.0310810
80.0000	98.69	0.0318107
100.000	98.35	0.0322058
120.000	98.02	0.0322991
140.000	97.69	0.0322253
160.000	97.35	0.0321746
180.000	97.02	0.0320773
200.000	96.69	0.0320409
220.000	96.35	0.0320452
240.000	96.02	0.0320072
260.000	95.69	0.0320430
280.000	95.35	0.0320486
300.000	95.02	0.0320311
320.000	94.69	0.0319606
340.000	94.35	0.0319584
360.000	94.02	0.0319517
380.000	93.69	0.0319896
400.000	93.35	0.0319477
420.000	93.02	0.0318966
440.000	92.69	0.0318753
460.000	92.35	0.0318805
480.000	92.02	0.0318474
500.000	91.69	0.0318895
520.000	91.35	0.0319054
540.000	91.02	0.0318950
560.000	90.69	0.0318192
580.000	90.35	0.0317538
600.000	90.02	0.0318023
620.000	89.69	0.0317656
640.000	89.35	0.0317984
660.000	89.02	0.0317896
680.000	88.69	0.0317073
700.000	88.36	0.0317246
720.000	88.02	0.0317204
740.000	87.69	0.0316799
760.000	87.36	0.0316829
780.000	87.02	0.0316443
800.000	86.69	0.0316219
820.000	86.35	0.0316379
840.000	86.02	0.0316277
860.000	85.69	0.0316482
880.000	85.35	0.0315814
900.000	85.02	0.0315728
920.000	84.69	0.0315576
940.000	84.35	0.0315612
960.000	84.02	0.0315634
980.000	83.69	0.0315310
1000.00	83.36	0.0315370
1020.00	83.02	0.0315343
1040.00	82.69	0.0314889
1060.00	82.36	0.0314615
1080.00	82.02	0.0315029
1100.00	81.69	0.0314727
1120.00	81.36	0.0314363
1140.00	81.02	0.0314258
1160.00	80.69	0.0314036
1180.00	80.36	0.0314215
1200.00	80.02	0.0314084
1220.00	79.69	0.0314110
1240.00	79.36	0.0313959
1260.00	79.02	0.0313773
1280.00	78.69	0.0313525
1300.00	78.36	0.0313727
1320.00	78.02	0.0313361
1340.00	77.69	0.0313375
1360.00	77.36	0.0313430
1380.00	77.02	0.0312878
1400.00	76.69	0.0312577
1420.00	76.36	0.0312877
1440.00	76.02	0.0312891
1460.00	75.69	0.0312715
1480.00	75.36	0.0312772
1500.00	75.02	0.0312487
1520.00	74.69	0.0312215
1540.00	74.36	0.0312473
1560.00	74.02	0.0312394
1580.00	73.69	0.0312428
1600.00	73.36	0.0311858
1620.00	73.02	0.0311447
1640.00	72.69	0.0311570
1660.00	72.36	0.0311698
1680.00	72.02	0.0311721
1700.00	71.69	0.0311928
1720.00	71.36	0.0311463
1740.00	71.02	0.0311568
1760.00	70.69	0.0311012
1780.00	70.36	0.0311009
1800.00	70.02	0.0311280
1820.00	69.69	0.0311209
1840.00	69.36	0.0311617
1860.00	69.02	0.0310899
1880.00	68.69	0.0311054
1900.00	68.36	0.0310792
1920.00	68.02	0.0311221
1940.00	67.69	0.0310939
1960.00	67.36	0.0311182
1980.00	67.02	0.0311262
2000.00	66.69	0.0311113
2020.00	66.36	0.0310997
2040.00	66.02	0.0310863
2060.00	65.69	0.0311086
2080.00	65.36	0.0311032
2100.00	65.02	0.0311088
2120.00	64.69	0.0311412
2140.00	64.36	0.0311631
2160.00	64.02	0.0311677
2180.00	63.69	0.0312560
2200.00	63.36	0.0313687
2220.00	63.02	0.0313847
2240.00	62.71	0.0512158
2260.00	62.38	0.0587105
2280.00	62.05	0.0551084
2300.00	61.71	0.0525609
2320.00	61.38	0.0506573
2340.00	61.04	0.0491096
2360.00	60.71	0.0476435
2380.00	60.37	0.0464033
2400.00	60.04	0.0452013
2420.00	59.70	0.0441732
2440.00	59.37	0.0433063
2460.00	59.03	0.0424262
2480.00	58.70	0.0415987
2500.00	58.37	0.0408852
2520.00	58.03	0.0402116
2540.00	57.70	0.0395893
2560.00	57.36	0.0390798
2580.00	57.03	0.0385436
2600.00	56.70	0.0380603
2620.00	56.36	0.0376512
2640.00	56.03	0.0372693
2660.00	55.70	0.0368889
2680.00	55.36	0.0365683
2700.00	55.03	0.0362176
2720.00	54.70	0.0358591
2740.00	54.36	0.0356363
2760.00	54.03	0.0354003
2780.00	53.70	0.0351383
2800.00	53.36	0.0348956
2820.00	53.03	0.0346842
2840.00	52.69	0.0345077
2860.00	52.36	0.0343411
2880.00	52.03	0.0341462
2900.00	51.69	0.0340485
2920.00	51.36	0.0338971
2940.00	51.03	0.0337244
2960.00	50.69	0.0335094
2980.00	50.36	0.0334362
3000.00	50.03	0.0333083
3020.00	49.69	0.0331603
3040.00	49.36	0.0330972
3060.00	49.03	0.0329877
3080.00	48.69	0.0328501
3100.00	48.36	0.0326990
3120.00	48.03	0.0325741
3140.00	47.69	0.0325683
3160.00	47.36	0.0326187
3180.00	47.03	0.0324333
3200.00	46.75	3.57106e-3
3220.00	47.95	1.48954
3240.00	46.44	0.470865
3260.00	45.74	0.0871071
3280.00	45.37	0.0413874
3300.00	45.03	0.0361816
3320.00	44.69	0.0340989
3340.00	44.36	0.0330169
3360.00	44.03	0.0324241
3380.00	43.69	0.0320819
3400.00	43.36	0.0318243
3420.00	43.02	0.0315986
3440.00	42.69	0.0313571
3460.00	42.36	0.0311740
3480.00	42.03	0.0309788
3500.00	41.69	0.0308524
3520.00	41.36	0.0306904
3540.00	41.02	0.0305716
3560.00	40.69	0.0304075
3580.00	40.36	0.0302400
3600.00	40.02	0.0301385
3620.00	39.69	0.0300508
3640.00	39.36	0.0298861
3660.00	39.02	0.0297559
3680.00	38.69	0.0296081
3700.00	38.36	0.0295088
3720.00	38.02	0.0294130
3740.00	37.69	0.0292972
3760.00	37.36	0.0291640
3780.00	37.02	0.0290534
3800.00	36.69	0.0289819
3820.00	36.35	0.0288855
3840.00	36.02	0.0287371
3860.00	35.69	0.0286791
3880.00	35.35	0.0286350
3900.00	35.02	0.0284871
3920.00	34.69	0.0283243
3940.00	34.36	0.0283048
3960.00	34.02	0.0282403
3980.00	33.69	0.0281769
4000.00	33.36	0.0280656
4020.00	33.02	0.0280273
4040.00	32.69	0.0279547
4060.00	32.36	0.0278600
4080.00	32.02	0.0278549
4100.00	31.69	0.0277323
4120.00	31.35	0.0276460
4140.00	31.02	0.0275975
4160.00	30.69	0.0275965
4180.00	30.35	0.0274507
4200.00	30.02	0.0274349
4220.00	29.69	0.0273515
4240.00	29.35	0.0272725
4260.00	29.02	0.0272026
4280.00	28.69	0.0271594
4300.00	28.35	0.0271413
4320.00	28.02	0.0270194
4340.00	27.69	0.0269296
4360.00	27.35	0.0268848
4380.00	27.02	0.0268376
4400.00	26.69	0.0267919
4420.00	26.35	0.0267372
4440.00	26.02	0.0267092
4460.00	25.69	0.0266301
4480.00	25.36	0.0265651
4500.00	25.02	0.0265324
4520.00	24.69	0.0264563
4540.00	24.35	0.0264414
4560.00	24.02	0.0263279
4580.00	23.69	0.0263091
4600.00	23.35	0.0262500
4620.00	23.02	0.0261998
4640.00	22.69	0.0261503
4660.00	22.35	0.0260925
4680.00	22.02	0.0259976
4700.00	21.69	0.0259766
4720.00	21.35	0.0259409
4740.00	21.02	0.0258635
4760.00	20.69	0.0258073
4780.00	20.35	0.0257313
4800.00	20.02	0.0256945
4820.00	19.69	0.0256869
4840.00	19.35	0.0256039
4860.00	19.02	0.0255803
4880.00	18.69	0.0254960
4900.00	18.35	0.0254369
4920.00	18.02	0.0254432
4940.00	17.69	0.0253778
4960.00	17.35	0.0253048
4980.00	17.02	0.0252447
5000.00	16.69	0.0252093
5020.00	16.35	0.0251389
5040.00	16.02	0.0250659
5060.00	15.68	0.0250546
5080.00	15.35	0.0250160
5100.00	15.02	0.0249624
5120.00	14.69	0.0248890
5140.00	14.35	0.0248803
5160.00	14.02	0.0247997
5180.00	13.68	0.0247718
5200.00	13.35	0.0247181
5220.00	13.02	0.0247614
5240.00	12.68	0.0246625
5260.00	12.35	0.0245946
5280.00	12.02	0.0245414
5300.00	11.69	0.0245052
5320.00	11.35	0.0244330
5340.00	11.02	0.0243744
5360.00	10.69	0.0243428
5380.00	10.35	0.0243962
5400.00	10.02	0.0243264
5420.00	9.68	0.0242867
5440.00	9.35	0.0242139
5460.00	9.02	0.0241901
5480.00	8.68	0.0241087
5500.00	8.35	0.0240662
5520.00	8.02	0.0240140
5540.00	7.68	0.0239955
5560.00	7.35	0.0240019
5580.00	7.02	0.0239423
5600.00	6.68	0.0238880
5620.00	6.35	0.0238026
5640.00	6.02	0.0237853
5660.00	5.69	0.0237777
5680.00	5.35	0.0237335
5700.00	5.02	0.0236713
5720.00	4.69	0.0236472
5740.00	4.35	0.0236519
5760.00	4.02	0.0236284
5780.00	3.68	0.0235571
5800.00	3.35	0.0235600
5820.00	3.02	0.0234903
5840.00	2.68	0.0234852
5860.00	2.35	0.0234028
5880.00	2.02	0.0234080
5900.00	1.68	0.0233834
5920.00	1.35	0.0233665
5940.00	1.02	0.0233188
5960.00	0.68	0.0232935
5980.00	0.35	0.0233145
5999.90	0.02	0.0232934