File: Differential scanning calorimetry/12OCB Squalene/12OCB SqE wt fraction 135.txt
Filename	Sq12OCB135T150
Instrument name	DSC2A-00101 (192.168.10.4)
Operator	Yuma
rundate	2/8/2021
Sample name	Sq12OCB135T150
proceduresegments	Jump 100.00 °C; Isothermal 10.0 min; Jump 0.00 °C; Isothermal 5.0 min; Mark End of Cycle ; Ramp 5.00 °C/min to 100.00 °C; Mark End of Cycle ; Ramp 5.00 °C/min to 0.00 °C; Mark End of Cycle ; Ramp 5.00 °C/min to 100.00 °C; Mark End of Cycle ; Ramp 1.00 °C/min to 0.00 °C; Mark End of Cycle ; Ramp 5.00 °C/min to 100.00 °C; Mark End of Cycle ; Ramp 10.00 °C/min to 0.00 °C; Mark End of Cycle ; Ramp 10.00 °C/min to 100.00 °C; Mark End of Cycle ; Jump 0.00 °C; Mark End of Cycle
[step]
Ramp 1.00 °C/min to 0.00 °C
Time	Temperature	Heat Flow (Normalized)
s	°C	W/g
4500.30	99.01	-0.171560
4520.30	99.51	-0.0246545
4540.30	99.20	0.0294428
4560.30	98.87	0.0337435
4580.30	98.54	0.0349037
4600.30	98.21	0.0350736
4620.30	97.88	0.0351232
4640.30	97.54	0.0348352
4660.30	97.21	0.0347544
4680.30	96.88	0.0346388
4700.30	96.54	0.0345979
4720.30	96.21	0.0345734
4740.30	95.88	0.0343525
4760.30	95.54	0.0342201
4780.30	95.21	0.0342381
4800.30	94.88	0.0341449
4820.30	94.54	0.0340497
4840.30	94.21	0.0339970
4860.30	93.88	0.0338785
4880.30	93.54	0.0337888
4900.30	93.21	0.0337951
4920.30	92.88	0.0338170
4940.30	92.54	0.0337247
4960.30	92.21	0.0336706
4980.30	91.88	0.0336121
5000.30	91.54	0.0335487
5020.30	91.21	0.0335370
5040.30	90.88	0.0333430
5060.30	90.54	0.0333547
5080.30	90.21	0.0333412
5100.30	89.88	0.0332850
5120.30	89.55	0.0332949
5140.30	89.21	0.0333538
5160.30	88.88	0.0332337
5180.30	88.55	0.0331663
5200.30	88.21	0.0333661
5220.30	87.88	0.0332303
5240.30	87.54	0.0330926
5260.30	87.21	0.0331530
5280.30	86.88	0.0331834
5300.30	86.54	0.0331903
5320.30	86.21	0.0331193
5340.30	85.88	0.0331874
5360.30	85.54	0.0331829
5380.30	85.21	0.0330426
5400.30	84.88	0.0331213
5420.30	84.54	0.0331890
5440.30	84.21	0.0331443
5460.30	83.88	0.0331789
5480.30	83.54	0.0331985
5500.30	83.21	0.0331334
5520.30	82.88	0.0330760
5540.30	82.54	0.0331226
5560.30	82.21	0.0331823
5580.30	81.88	0.0330614
5600.30	81.54	0.0332363
5620.30	81.21	0.0331389
5640.30	80.88	0.0331998
5660.30	80.55	0.0332056
5680.30	80.21	0.0332359
5700.30	79.88	0.0332703
5720.30	79.55	0.0332626
5740.30	79.21	0.0334081
5760.30	78.88	0.0333446
5780.30	78.55	0.0334599
5800.30	78.21	0.0335515
5820.30	77.88	0.0336499
5840.30	77.54	0.0337932
5860.30	77.21	0.0338229
5880.30	76.88	0.0338606
5900.30	76.55	0.0341414
5920.30	76.21	0.0366408
5940.30	75.89	0.0514288
5960.30	75.56	0.0709981
5980.30	75.22	0.0678074
6000.30	74.89	0.0618465
6020.30	74.55	0.0581492
6040.30	74.22	0.0556696
6060.30	73.89	0.0538736
6080.30	73.55	0.0527016
6100.30	73.22	0.0512993
6120.30	72.88	0.0496490
6140.30	72.55	0.0491573
6160.30	72.22	0.0481262
6180.30	71.88	0.0474869
6200.30	71.55	0.0469063
6220.30	71.22	0.0460071
6240.30	70.88	0.0452693
6260.30	70.55	0.0448379
6280.30	70.22	0.0443707
6300.30	69.88	0.0440036
6320.30	69.55	0.0436071
6340.30	69.21	0.0429118
6360.30	68.88	0.0424075
6380.30	68.55	0.0419190
6400.30	68.22	0.0413870
6420.30	67.88	0.0410651
6440.30	67.55	0.0407887
6460.30	67.21	0.0403078
6480.30	66.88	0.0399770
6500.30	66.55	0.0395668
6520.30	66.21	0.0392889
6540.30	65.88	0.0388297
6560.30	65.55	0.0385503
6580.30	65.21	0.0383150
6600.30	64.88	0.0379501
6620.30	64.55	0.0377775
6640.30	64.21	0.0375308
6660.30	63.88	0.0373027
6680.30	63.55	0.0370948
6700.30	63.21	0.0369112
6720.30	62.88	0.0364896
6740.30	62.55	0.0363875
6760.30	62.21	0.0361979
6780.30	61.88	0.0360718
6800.30	61.55	0.0358196
6820.30	61.21	0.0357390
6840.30	60.88	0.0357087
6860.30	60.55	0.0353207
6880.30	60.21	0.0351202
6900.30	59.88	0.0350344
6920.30	59.55	0.0349324
6940.30	59.21	0.0346488
6960.30	58.88	0.0346464
6980.30	58.55	0.0347246
7000.30	58.21	0.0344620
7020.30	57.88	0.0344040
7040.30	57.55	0.0341748
7060.30	57.21	0.0339124
7080.30	56.88	0.0338729
7100.30	56.55	0.0339644
7120.30	56.21	0.0337517
7140.30	55.88	0.0337303
7160.30	55.54	0.0335745
7180.30	55.21	0.0335465
7200.30	54.88	0.0333816
7220.30	54.55	0.0332261
7240.30	54.21	0.0332963
7260.30	53.88	0.0333846
7280.30	53.54	0.0334503
7300.30	53.21	0.0332558
7320.30	52.88	0.0332236
7340.30	52.55	0.0333699
7360.30	52.21	0.0333719
7380.30	51.88	0.0332128
7400.30	51.54	0.0330840
7420.30	51.21	0.0328652
7440.30	50.88	0.0328776
7460.30	50.55	0.0328908
7480.30	50.21	0.0328469
7500.30	49.88	0.0326738
7520.30	49.55	0.0325860
7540.30	49.21	0.0325692
7560.30	48.97	-0.0704876
7580.30	49.39	2.55544
7600.30	48.48	1.01547
7620.30	47.90	0.100309
7640.30	47.55	0.0460604
7660.30	47.21	0.0399162
7680.30	46.88	0.0363902
7700.30	46.54	0.0344584
7720.30	46.21	0.0334429
7740.30	45.88	0.0327739
7760.30	45.54	0.0321740
7780.30	45.21	0.0316162
7800.30	44.88	0.0311192
7820.30	44.54	0.0308077
7840.30	44.21	0.0304446
7860.30	43.88	0.0301552
7880.30	43.54	0.0298239
7900.30	43.21	0.0295525
7920.30	42.88	0.0291412
7940.30	42.54	0.0288641
7960.30	42.21	0.0285356
7980.30	41.88	0.0285159
8000.30	41.54	0.0281906
8020.30	41.21	0.0280035
8040.30	40.88	0.0278375
8060.30	40.54	0.0276403
8080.30	40.21	0.0275383
8100.30	39.88	0.0272674
8120.30	39.54	0.0272263
8140.30	39.20	0.0271796
8160.30	38.87	0.0269044
8180.30	38.54	0.0264424
8200.30	38.21	0.0263279
8220.30	37.88	0.0262043
8240.30	37.54	0.0261724
8260.30	37.21	0.0260867
8280.30	36.87	0.0259574
8300.30	36.54	0.0258327
8320.30	36.21	0.0257061
8340.30	35.88	0.0255661
8360.30	35.55	0.0251062
8380.30	35.21	0.0253193
8400.30	34.88	0.0253985
8420.30	34.54	0.0253821
8440.30	34.21	0.0251368
8460.30	33.88	0.0250441
8480.30	33.54	0.0249357
8500.30	33.21	0.0248508
8520.30	32.87	0.0247859
8540.30	32.54	0.0245996
8560.30	32.21	0.0243332
8580.30	31.87	0.0246134
8600.30	31.54	0.0242877
8620.30	31.21	0.0240255
8640.30	30.88	0.0235467
8660.30	30.54	0.0240733
8680.30	30.21	0.0241747
8700.30	29.87	0.0241043
8720.30	29.54	0.0241752
8740.30	29.21	0.0238119
8760.30	28.87	0.0235442
8780.30	28.54	0.0235354
8800.30	28.21	0.0235547
8820.30	27.87	0.0234298
8840.30	27.54	0.0230287
8860.30	27.21	0.0232276
8880.30	26.87	0.0233715
8900.30	26.54	0.0231753
8920.30	26.21	0.0230830
8940.30	25.87	0.0229012
8960.30	25.54	0.0229584
8980.30	25.21	0.0228427
9000.30	24.88	0.0226693
9020.30	24.54	0.0226772
9040.30	24.21	0.0228519
9060.30	23.87	0.0227085
9080.30	23.54	0.0226401
9100.30	23.21	0.0222470
9120.30	22.87	0.0224203
9140.30	22.54	0.0223775
9160.30	22.20	0.0222568
9180.30	21.87	0.0222775
9200.30	21.54	0.0223173
9220.30	21.21	0.0219471
9240.30	20.87	0.0220875
9260.30	20.54	0.0222150
9280.30	20.21	0.0222212
9300.30	19.87	0.0221746
9320.30	19.53	0.0227999
9340.30	19.20	0.0225650
9360.30	18.88	0.0216747
9380.30	18.54	0.0218820
9400.30	18.21	0.0218170
9420.30	17.87	0.0218527
9440.30	17.53	0.0219656
9460.30	17.21	0.0215823
9480.30	16.87	0.0219917
9500.30	16.54	0.0214983
9520.30	16.21	0.0215536
9540.30	15.87	0.0215036
9560.30	15.53	0.0216208
9580.30	15.20	0.0215793
9600.30	14.87	0.0212256
9620.30	14.54	0.0211605
9640.30	14.20	0.0211385
9660.30	13.87	0.0210011
9680.30	13.54	0.0212712
9700.30	13.21	0.0211165
9720.30	12.87	0.0210786
9740.30	12.54	0.0209524
9760.30	12.20	0.0209019
9780.30	11.87	0.0208566
9800.30	11.54	0.0207752
9820.30	11.21	0.0207341
9840.30	10.87	0.0208258
9860.30	10.54	0.0207545
9880.30	10.20	0.0206910
9900.30	9.87	0.0206198
9920.30	9.54	0.0205760
9940.30	9.20	0.0204473
9960.30	8.87	0.0203021
9980.30	8.54	0.0202926
10000.3	8.20	0.0202061
10020.3	7.87	0.0201854
10040.3	7.54	0.0200691
10060.3	7.20	0.0199786
10080.3	6.87	0.0200043
10100.3	6.54	0.0199382
10120.3	6.20	0.0199676
10140.3	5.87	0.0198945
10160.3	5.54	0.0197306
10180.3	5.20	0.0197753
10200.3	4.87	0.0197297
10220.3	4.54	0.0196553
10240.3	4.20	0.0195633
10260.3	3.87	0.0195820
10280.3	3.54	0.0194753
10300.3	3.20	0.0194917
10320.3	2.87	0.0193761
10340.3	2.54	0.0194066
10360.3	2.20	0.0193692
10380.3	1.87	0.0194299
10400.3	1.54	0.0193668
10420.3	1.20	0.0194054
10440.3	0.87	0.0193375
10460.3	0.54	0.0193871
10480.3	0.20	0.0193851
10500.2	-0.13	0.0193873