File: Differential scanning calorimetry/12OCB Squalene/12OCB SqE wt fraction 211.txt
Filename	Sq12OCB211T150
Instrument name	DSC2A-00101 (192.168.10.4)
Operator	Yuma
rundate	2/7/2021
Sample name	Sq12OCB211T150
proceduresegments	Jump 100.00 °C; Isothermal 10.0 min; Jump 0.00 °C; Isothermal 5.0 min; Mark End of Cycle ; Ramp 5.00 °C/min to 100.00 °C; Mark End of Cycle ; Ramp 5.00 °C/min to 0.00 °C; Mark End of Cycle ; Ramp 5.00 °C/min to 100.00 °C; Mark End of Cycle ; Ramp 1.00 °C/min to 0.00 °C; Mark End of Cycle ; Ramp 5.00 °C/min to 100.00 °C; Mark End of Cycle ; Ramp 10.00 °C/min to 0.00 °C; Mark End of Cycle ; Ramp 10.00 °C/min to 100.00 °C; Mark End of Cycle ; Jump 0.00 °C; Mark End of Cycle
[step]
Ramp 1.00 °C/min to 0.00 °C
Time	Temperature	Heat Flow (Normalized)
s	°C	W/g
4500.30	99.00	-0.162155
4520.30	99.51	-0.0104639
4540.30	99.21	0.0301923
4560.30	98.88	0.0334706
4580.30	98.54	0.0342948
4600.30	98.21	0.0343970
4620.30	97.88	0.0343514
4640.30	97.55	0.0343292
4660.30	97.22	0.0341729
4680.30	96.88	0.0341625
4700.30	96.55	0.0340555
4720.30	96.21	0.0339091
4740.30	95.88	0.0338333
4760.30	95.55	0.0337717
4780.30	95.21	0.0336863
4800.30	94.88	0.0335758
4820.30	94.55	0.0335117
4840.30	94.22	0.0334501
4860.30	93.88	0.0333776
4880.30	93.55	0.0333598
4900.30	93.21	0.0332817
4920.30	92.88	0.0332000
4940.30	92.55	0.0332103
4960.30	92.21	0.0331786
4980.30	91.88	0.0331237
5000.30	91.55	0.0331422
5020.30	91.22	0.0330464
5040.30	90.88	0.0330040
5060.30	90.55	0.0329888
5080.30	90.22	0.0329739
5100.30	89.88	0.0329246
5120.30	89.55	0.0328700
5140.30	89.22	0.0328514
5160.30	88.88	0.0328131
5180.30	88.55	0.0328249
5200.30	88.22	0.0327567
5220.30	87.88	0.0327521
5240.30	87.55	0.0327057
5260.30	87.22	0.0327216
5280.30	86.88	0.0327148
5300.30	86.55	0.0326348
5320.30	86.21	0.0326293
5340.30	85.88	0.0326528
5360.30	85.55	0.0326217
5380.30	85.22	0.0326205
5400.30	84.88	0.0326078
5420.30	84.55	0.0325505
5440.30	84.22	0.0325789
5460.30	83.88	0.0325613
5480.30	83.55	0.0325767
5500.30	83.22	0.0325894
5520.30	82.88	0.0325937
5540.30	82.55	0.0325991
5560.30	82.22	0.0326158
5580.30	81.88	0.0326083
5600.30	81.55	0.0325283
5620.30	81.22	0.0325755
5640.30	80.88	0.0325500
5660.30	80.55	0.0326420
5680.30	80.22	0.0326505
5700.30	79.88	0.0326185
5720.30	79.55	0.0326918
5740.30	79.22	0.0326848
5760.30	78.88	0.0326458
5780.30	78.55	0.0326703
5800.30	78.22	0.0327302
5820.30	77.88	0.0327432
5840.30	77.55	0.0328096
5860.30	77.22	0.0328031
5880.30	76.88	0.0328716
5900.30	76.55	0.0328711
5920.30	76.22	0.0329139
5940.30	75.88	0.0329168
5960.30	75.55	0.0329519
5980.30	75.22	0.0330236
6000.30	74.88	0.0330523
6020.30	74.55	0.0331353
6040.30	74.22	0.0333768
6060.30	73.88	0.0341205
6080.30	73.55	0.0357086
6100.30	73.22	0.0414403
6120.30	72.89	0.0518385
6140.30	72.56	0.0574189
6160.30	72.23	0.0549983
6180.30	71.89	0.0502742
6200.30	71.56	0.0501964
6220.30	71.22	0.0493755
6240.30	70.89	0.0485983
6260.30	70.56	0.0480900
6280.30	70.22	0.0478673
6300.30	69.89	0.0469642
6320.30	69.56	0.0460296
6340.30	69.22	0.0455296
6360.30	68.89	0.0448737
6380.30	68.56	0.0443403
6400.30	68.22	0.0438482
6420.30	67.89	0.0433195
6440.30	67.55	0.0427939
6460.30	67.22	0.0425510
6480.30	66.89	0.0419610
6500.30	66.55	0.0416266
6520.30	66.22	0.0412026
6540.30	65.89	0.0408004
6560.30	65.55	0.0404240
6580.30	65.22	0.0401415
6600.30	64.89	0.0397645
6620.30	64.55	0.0393648
6640.30	64.22	0.0392667
6660.30	63.89	0.0390019
6680.30	63.55	0.0386318
6700.30	63.22	0.0384229
6720.30	62.89	0.0381658
6740.30	62.55	0.0377754
6760.30	62.22	0.0376124
6780.30	61.89	0.0374300
6800.30	61.55	0.0371921
6820.30	61.22	0.0369580
6840.30	60.89	0.0368021
6860.30	60.55	0.0366943
6880.30	60.22	0.0365523
6900.30	59.88	0.0363467
6920.30	59.55	0.0360578
6940.30	59.22	0.0359061
6960.30	58.88	0.0357714
6980.30	58.55	0.0357071
7000.30	58.22	0.0355036
7020.30	57.88	0.0353942
7040.30	57.55	0.0352608
7060.30	57.22	0.0351136
7080.30	56.88	0.0349986
7100.30	56.55	0.0348745
7120.30	56.22	0.0347677
7140.30	55.88	0.0346206
7160.30	55.55	0.0345453
7180.30	55.22	0.0343950
7200.30	54.88	0.0342945
7220.30	54.55	0.0341759
7240.30	54.22	0.0340386
7260.30	53.88	0.0339092
7280.30	53.55	0.0337731
7300.30	53.22	0.0336684
7320.30	52.88	0.0336069
7340.30	52.55	0.0335452
7360.30	52.22	0.0334934
7380.30	51.88	0.0333746
7400.30	51.55	0.0333438
7420.30	51.22	0.0332265
7440.30	50.88	0.0331685
7460.30	50.55	0.0330681
7480.30	50.22	0.0329651
7500.30	49.88	0.0329225
7520.30	49.55	0.0328359
7540.30	49.22	0.0327365
7560.30	49.04	-0.0110519
7580.30	49.92	3.62375
7600.30	48.27	0.195277
7620.30	47.89	0.0475845
7640.30	47.55	0.0396699
7660.30	47.22	0.0362958
7680.30	46.88	0.0344053
7700.30	46.55	0.0333268
7720.30	46.22	0.0326902
7740.30	45.88	0.0321879
7760.30	45.55	0.0316924
7780.30	45.22	0.0313512
7800.30	44.88	0.0310084
7820.30	44.55	0.0307109
7840.30	44.22	0.0304413
7860.30	43.88	0.0301801
7880.30	43.55	0.0298904
7900.30	43.22	0.0296889
7920.30	42.88	0.0294616
7940.30	42.55	0.0292894
7960.30	42.21	0.0291038
7980.30	41.88	0.0289142
8000.30	41.55	0.0287052
8020.30	41.21	0.0285649
8040.30	40.88	0.0283766
8060.30	40.55	0.0282073
8080.30	40.21	0.0280455
8100.30	39.88	0.0278916
8120.30	39.55	0.0277100
8140.30	39.21	0.0276690
8160.30	38.88	0.0274996
8180.30	38.55	0.0273866
8200.30	38.21	0.0274957
8220.30	37.88	0.0272581
8240.30	37.55	0.0271522
8260.30	37.21	0.0270389
8280.30	36.88	0.0268494
8300.30	36.55	0.0268525
8320.30	36.21	0.0267170
8340.30	35.88	0.0265858
8360.30	35.55	0.0264163
8380.30	35.21	0.0262941
8400.30	34.88	0.0262104
8420.30	34.55	0.0262044
8440.30	34.21	0.0260895
8460.30	33.88	0.0261191
8480.30	33.55	0.0260027
8500.30	33.21	0.0259205
8520.30	32.88	0.0258249
8540.30	32.55	0.0257822
8560.30	32.21	0.0256406
8580.30	31.88	0.0255250
8600.30	31.55	0.0254358
8620.30	31.21	0.0254439
8640.30	30.88	0.0253870
8660.30	30.54	0.0253079
8680.30	30.21	0.0251812
8700.30	29.88	0.0251516
8720.30	29.55	0.0251399
8740.30	29.21	0.0251179
8760.30	28.88	0.0249929
8780.30	28.55	0.0249214
8800.30	28.21	0.0247733
8820.30	27.88	0.0248141
8840.30	27.55	0.0248790
8860.30	27.21	0.0247935
8880.30	26.88	0.0247329
8900.30	26.55	0.0247107
8920.30	26.21	0.0246103
8940.30	25.88	0.0245841
8960.30	25.55	0.0245911
8980.30	25.21	0.0247794
9000.30	24.88	0.0246211
9020.30	24.55	0.0245937
9040.30	24.21	0.0244344
9060.30	23.88	0.0243422
9080.30	23.55	0.0242511
9100.30	23.21	0.0241758
9120.30	22.88	0.0241306
9140.30	22.55	0.0241456
9160.30	22.21	0.0241912
9180.30	21.88	0.0240566
9200.30	21.54	0.0240840
9220.30	21.21	0.0239844
9240.30	20.88	0.0237962
9260.30	20.55	0.0238781
9280.30	20.21	0.0237193
9300.30	19.88	0.0235966
9320.30	19.54	0.0235690
9340.30	19.21	0.0234349
9360.30	18.88	0.0234133
9380.30	18.54	0.0235347
9400.30	18.21	0.0235697
9420.30	17.88	0.0236404
9440.30	17.54	0.0236459
9460.30	17.21	0.0235055
9480.30	16.88	0.0234962
9500.30	16.54	0.0234326
9520.30	16.21	0.0233336
9540.30	15.88	0.0232285
9560.30	15.54	0.0230930
9580.30	15.21	0.0230298
9600.30	14.88	0.0230602
9620.30	14.55	0.0230393
9640.30	14.21	0.0230815
9660.30	13.88	0.0229572
9680.30	13.54	0.0229077
9700.30	13.21	0.0227385
9720.30	12.88	0.0224522
9740.30	12.54	0.0223702
9760.30	12.21	0.0223400
9780.30	11.88	0.0223174
9800.30	11.54	0.0222488
9820.30	11.21	0.0221674
9840.30	10.88	0.0221295
9860.30	10.54	0.0220295
9880.30	10.21	0.0223025
9900.30	9.88	0.0221032
9920.30	9.54	0.0218715
9940.30	9.21	0.0218174
9960.30	8.88	0.0217375
9980.30	8.54	0.0216898
10000.3	8.21	0.0215852
10020.3	7.88	0.0215336
10040.3	7.54	0.0215108
10060.3	7.21	0.0214602
10080.3	6.88	0.0213864
10100.3	6.54	0.0212824
10120.3	6.21	0.0212680
10140.3	5.88	0.0212109
10160.3	5.54	0.0212137
10180.3	5.21	0.0211181
10200.3	4.87	0.0214446
10220.3	4.54	0.0211216
10240.3	4.21	0.0210765
10260.3	3.88	0.0210155
10280.3	3.54	0.0209572
10300.3	3.21	0.0209377
10320.3	2.88	0.0208570
10340.3	2.54	0.0208105
10360.3	2.21	0.0208372
10380.3	1.88	0.0208456
10400.3	1.54	0.0208298
10420.3	1.21	0.0208327
10440.3	0.88	0.0207386
10460.3	0.54	0.0207175
10480.3	0.21	0.0207343
10500.2	-0.12	0.0207563