File: Differential scanning calorimetry/12OCB Squalene/12OCB SqE wt fraction 320.txt
Filename	Sq12OCB320
Instrument name	DSC2A-00101 (192.168.10.4)
Operator	Yuma
rundate	2/3/2021
Sample name	Sq12OCB320
proceduresegments	Jump 100.00 °C; Isothermal 10.0 min; Jump 0.00 °C; Isothermal 5.0 min; Mark End of Cycle ; Ramp 5.00 °C/min to 100.00 °C; Mark End of Cycle ; Ramp 5.00 °C/min to 0.00 °C; Mark End of Cycle ; Ramp 5.00 °C/min to 100.00 °C; Mark End of Cycle ; Ramp 1.00 °C/min to 0.00 °C; Mark End of Cycle ; Ramp 5.00 °C/min to 100.00 °C; Mark End of Cycle ; Ramp 10.00 °C/min to 0.00 °C; Mark End of Cycle ; Ramp 10.00 °C/min to 100.00 °C; Mark End of Cycle ; Jump 0.00 °C; Mark End of Cycle
[step]
Ramp 1.00 °C/min to 0.00 °C
Time	Temperature	Heat Flow (Normalized)
s	°C	W/g
4500.30	98.96	-0.148333
4520.30	99.44	-0.0246020
4540.30	99.13	0.0142780
4560.30	98.80	0.0181016
4580.30	98.47	0.0189943
4600.30	98.14	0.0190840
4620.30	97.80	0.0190567
4640.30	97.47	0.0190602
4660.30	97.14	0.0189891
4680.30	96.81	0.0189401
4700.30	96.47	0.0189165
4720.30	96.14	0.0188557
4740.30	95.80	0.0188270
4760.30	95.47	0.0187914
4780.30	95.14	0.0188411
4800.30	94.80	0.0189124
4820.30	94.47	0.0189692
4840.30	94.14	0.0189851
4860.30	93.81	0.0190278
4880.30	93.47	0.0190900
4900.30	93.14	0.0191665
4920.30	92.81	0.0191882
4940.30	92.47	0.0192194
4960.30	92.14	0.0192951
4980.30	91.81	0.0193141
5000.30	91.47	0.0193114
5020.30	91.14	0.0193415
5040.30	90.81	0.0192952
5060.30	90.47	0.0193289
5080.30	90.14	0.0193394
5100.30	89.81	0.0193677
5120.30	89.47	0.0194628
5140.30	89.14	0.0193974
5160.30	88.81	0.0194183
5180.30	88.47	0.0194353
5200.30	88.14	0.0194783
5220.30	87.81	0.0195197
5240.30	87.47	0.0195824
5260.30	87.14	0.0196350
5280.30	86.81	0.0196632
5300.30	86.48	0.0196217
5320.30	86.14	0.0196432
5340.30	85.81	0.0196844
5360.30	85.47	0.0197009
5380.30	85.14	0.0197186
5400.30	84.81	0.0197339
5420.30	84.47	0.0198033
5440.30	84.14	0.0197723
5460.30	83.81	0.0197385
5480.30	83.48	0.0198288
5500.30	83.14	0.0198351
5520.30	82.81	0.0199070
5540.30	82.48	0.0199187
5560.30	82.14	0.0199688
5580.30	81.81	0.0200245
5600.30	81.48	0.0200288
5620.30	81.14	0.0200631
5640.30	80.81	0.0201221
5660.30	80.47	0.0200741
5680.30	80.14	0.0201621
5700.30	79.81	0.0201939
5720.30	79.48	0.0202636
5740.30	79.14	0.0202491
5760.30	78.81	0.0203084
5780.30	78.48	0.0203170
5800.30	78.14	0.0203478
5820.30	77.81	0.0204839
5840.30	77.48	0.0206055
5860.30	77.14	0.0206726
5880.30	76.81	0.0207160
5900.30	76.48	0.0207079
5920.30	76.14	0.0208168
5940.30	75.81	0.0209382
5960.30	75.48	0.0209682
5980.30	75.14	0.0209972
6000.30	74.81	0.0210826
6020.30	74.48	0.0211480
6040.30	74.14	0.0212358
6060.30	73.81	0.0212971
6080.30	73.48	0.0213622
6100.30	73.14	0.0215057
6120.30	72.81	0.0215214
6140.30	72.48	0.0216587
6160.30	72.14	0.0216952
6180.30	71.81	0.0218236
6200.30	71.48	0.0218939
6220.30	71.14	0.0219713
6240.30	70.81	0.0219844
6260.30	70.48	0.0220709
6280.30	70.14	0.0220948
6300.30	69.81	0.0220985
6320.30	69.48	0.0221533
6340.30	69.14	0.0221462
6360.30	68.81	0.0221934
6380.30	68.48	0.0222005
6400.30	68.14	0.0223221
6420.30	67.81	0.0223238
6440.30	67.48	0.0224945
6460.30	67.14	0.0233676
6480.30	66.81	0.0278758
6500.30	66.48	0.0345098
6520.30	66.15	0.0376265
6540.30	65.81	0.0372079
6560.30	65.48	0.0366789
6580.30	65.15	0.0355074
6600.30	64.81	0.0351598
6620.30	64.48	0.0345114
6640.30	64.15	0.0341787
6660.30	63.81	0.0338372
6680.30	63.48	0.0332816
6700.30	63.15	0.0330733
6720.30	62.81	0.0327931
6740.30	62.48	0.0322472
6760.30	62.15	0.0316796
6780.30	61.81	0.0316587
6800.30	61.48	0.0310069
6820.30	61.15	0.0310026
6840.30	60.81	0.0304891
6860.30	60.48	0.0303161
6880.30	60.15	0.0298666
6900.30	59.81	0.0296269
6920.30	59.48	0.0293075
6940.30	59.15	0.0289748
6960.30	58.81	0.0289137
6980.30	58.48	0.0286906
7000.30	58.15	0.0284075
7020.30	57.81	0.0282778
7040.30	57.48	0.0280619
7060.30	57.15	0.0279952
7080.30	56.81	0.0276748
7100.30	56.48	0.0274343
7120.30	56.14	0.0271386
7140.30	55.81	0.0269601
7160.30	55.48	0.0268356
7180.30	55.14	0.0266170
7200.30	54.81	0.0264151
7220.30	54.48	0.0261660
7240.30	54.15	0.0263259
7260.30	53.81	0.0262105
7280.30	53.48	0.0257113
7300.30	53.15	0.0254801
7320.30	52.81	0.0253805
7340.30	52.48	0.0251927
7360.30	52.14	0.0249787
7380.30	51.81	0.0247650
7400.30	51.48	0.0246823
7420.30	51.14	0.0245781
7440.30	50.81	0.0244051
7460.30	50.56	0.0811486
7480.30	50.71	1.83416
7500.30	50.15	1.33103
7520.30	49.51	0.150441
7540.30	49.15	0.0422473
7560.30	48.81	0.0361793
7580.30	48.48	0.0323287
7600.30	48.15	0.0303004
7620.30	47.81	0.0293766
7640.30	47.48	0.0286910
7660.30	47.14	0.0276277
7680.30	46.81	0.0264923
7700.30	46.48	0.0257310
7720.30	46.14	0.0253582
7740.30	45.81	0.0251208
7760.30	45.48	0.0250619
7780.30	45.14	0.0247926
7800.30	44.81	0.0241048
7820.30	44.48	0.0234902
7840.30	44.14	0.0228043
7860.30	43.81	0.0222992
7880.30	43.48	0.0218744
7900.30	43.14	0.0216668
7920.30	42.81	0.0214952
7940.30	42.48	0.0211450
7960.30	42.14	0.0208722
7980.30	41.81	0.0205919
8000.30	41.48	0.0202829
8020.30	41.14	0.0201167
8040.30	40.81	0.0197483
8060.30	40.48	0.0195068
8080.30	40.14	0.0193158
8100.30	39.81	0.0191299
8120.30	39.47	0.0189746
8140.30	39.14	0.0186623
8160.30	38.81	0.0184359
8180.30	38.48	0.0182133
8200.30	38.14	0.0180440
8220.30	37.81	0.0178593
8240.30	37.48	0.0176960
8260.30	37.14	0.0175318
8280.30	36.81	0.0173524
8300.30	36.48	0.0172181
8320.30	36.14	0.0171243
8340.30	35.81	0.0169237
8360.30	35.47	0.0167659
8380.30	35.14	0.0167085
8400.30	34.81	0.0166126
8420.30	34.48	0.0164618
8440.30	34.14	0.0163500
8460.30	33.81	0.0162253
8480.30	33.48	0.0160916
8500.30	33.14	0.0159713
8520.30	32.81	0.0158955
8540.30	32.47	0.0157919
8560.30	32.14	0.0156597
8580.30	31.81	0.0155669
8600.30	31.47	0.0154213
8620.30	31.14	0.0153438
8640.30	30.81	0.0152784
8660.30	30.47	0.0152190
8680.30	30.14	0.0150740
8700.30	29.81	0.0149722
8720.30	29.47	0.0148885
8740.30	29.14	0.0147501
8760.30	28.81	0.0147253
8780.30	28.47	0.0146245
8800.30	28.14	0.0144950
8820.30	27.81	0.0144180
8840.30	27.47	0.0143616
8860.30	27.14	0.0142258
8880.30	26.81	0.0141630
8900.30	26.47	0.0140881
8920.30	26.14	0.0139309
8940.30	25.81	0.0138311
8960.30	25.47	0.0137599
8980.30	25.14	0.0137027
9000.30	24.81	0.0136500
9020.30	24.47	0.0135698
9040.30	24.14	0.0134216
9060.30	23.81	0.0133166
9080.30	23.47	0.0132218
9100.30	23.14	0.0131729
9120.30	22.81	0.0131147
9140.30	22.47	0.0129749
9160.30	22.14	0.0129180
9180.30	21.81	0.0128639
9200.30	21.47	0.0128144
9220.30	21.14	0.0127481
9240.30	20.81	0.0126509
9260.30	20.47	0.0125966
9280.30	20.14	0.0125185
9300.30	19.81	0.0124204
9320.30	19.47	0.0123806
9340.30	19.14	0.0123183
9360.30	18.81	0.0122177
9380.30	18.47	0.0121654
9400.30	18.14	0.0121056
9420.30	17.81	0.0120208
9440.30	17.47	0.0119364
9460.30	17.14	0.0118453
9480.30	16.81	0.0117783
9500.30	16.47	0.0116820
9520.30	16.14	0.0116131
9540.30	15.80	0.0115249
9560.30	15.47	0.0114853
9580.30	15.14	0.0114193
9600.30	14.81	0.0113650
9620.30	14.47	0.0112830
9640.30	14.14	0.0112147
9660.30	13.81	0.0111417
9680.30	13.47	0.0111795
9700.30	13.14	0.0110393
9720.30	12.80	0.0109670
9740.30	12.47	0.0109078
9760.30	12.14	0.0109080
9780.30	11.80	0.0108158
9800.30	11.47	0.0107967
9820.30	11.14	0.0106550
9840.30	10.80	0.0106723
9860.30	10.47	0.0105447
9880.30	10.14	0.0104500
9900.30	9.80	0.0103780
9920.30	9.47	0.0103215
9940.30	9.14	0.0102803
9960.30	8.81	0.0101977
9980.30	8.47	0.0101692
10000.3	8.14	0.0100999
10020.3	7.80	0.0100953
10040.3	7.47	0.0100551
10060.3	7.14	9.92143e-3
10080.3	6.80	9.83237e-3
10100.3	6.47	9.78449e-3
10120.3	6.14	9.71477e-3
10140.3	5.80	9.63077e-3
10160.3	5.47	9.74166e-3
10180.3	5.14	9.68089e-3
10200.3	4.80	9.55943e-3
10220.3	4.47	9.42465e-3
10240.3	4.14	9.39848e-3
10260.3	3.80	9.38466e-3
10280.3	3.47	9.33988e-3
10300.3	3.14	9.30457e-3
10320.3	2.80	9.28371e-3
10340.3	2.47	9.27279e-3
10360.3	2.14	9.15457e-3
10380.3	1.80	9.13069e-3
10400.3	1.47	9.16994e-3
10420.3	1.14	9.07769e-3
10440.3	0.80	9.03539e-3
10460.3	0.47	9.06831e-3
10480.3	0.14	9.01117e-3
10500.2	-0.19	9.01418e-3