File: Differential scanning calorimetry/12OCB Squalene/12OCB SqE wt fraction 150.txt
Filename	Sq12OCB550T150
Instrument name	DSC2A-00101 (192.168.10.4)
Operator	Yuma
rundate	2/8/2021
Sample name	Sq12OCB550T150
proceduresegments	Jump 100.00 °C; Isothermal 10.0 min; Jump 0.00 °C; Isothermal 5.0 min; Mark End of Cycle ; Ramp 5.00 °C/min to 100.00 °C; Mark End of Cycle ; Ramp 5.00 °C/min to 0.00 °C; Mark End of Cycle ; Ramp 5.00 °C/min to 100.00 °C; Mark End of Cycle ; Ramp 1.00 °C/min to 0.00 °C; Mark End of Cycle ; Ramp 5.00 °C/min to 100.00 °C; Mark End of Cycle ; Ramp 10.00 °C/min to 0.00 °C; Mark End of Cycle ; Ramp 10.00 °C/min to 100.00 °C; Mark End of Cycle ; Jump 0.00 °C; Mark End of Cycle
[step]
Ramp 1.00 °C/min to 0.00 °C
Time	Temperature	Heat Flow (Normalized)
s	°C	W/g
4500.30	98.94	-0.190829
4520.30	99.49	-0.0332226
4540.30	99.21	0.0320404
4560.30	98.88	0.0358598
4580.30	98.55	0.0369417
4600.30	98.22	0.0370384
4620.30	97.89	0.0369763
4640.30	97.55	0.0368049
4660.30	97.22	0.0366719
4680.30	96.88	0.0364907
4700.30	96.55	0.0364051
4720.30	96.22	0.0362920
4740.30	95.89	0.0362569
4760.30	95.55	0.0361735
4780.30	95.22	0.0360061
4800.30	94.89	0.0358547
4820.30	94.55	0.0358778
4840.30	94.22	0.0359160
4860.30	93.89	0.0358056
4880.30	93.55	0.0356898
4900.30	93.22	0.0357274
4920.30	92.89	0.0355982
4940.30	92.55	0.0355597
4960.30	92.22	0.0355518
4980.30	91.89	0.0354755
5000.30	91.55	0.0355064
5020.30	91.22	0.0355746
5040.30	90.89	0.0353044
5060.30	90.55	0.0353408
5080.30	90.22	0.0354046
5100.30	89.89	0.0353025
5120.30	89.55	0.0352445
5140.30	89.22	0.0354481
5160.30	88.89	0.0353164
5180.30	88.55	0.0353737
5200.30	88.22	0.0352791
5220.30	87.89	0.0352606
5240.30	87.55	0.0353923
5260.30	87.22	0.0352911
5280.30	86.89	0.0352260
5300.30	86.55	0.0353171
5320.30	86.22	0.0353334
5340.30	85.89	0.0353013
5360.30	85.55	0.0351138
5380.30	85.22	0.0351323
5400.30	84.89	0.0352642
5420.30	84.55	0.0352698
5440.30	84.22	0.0351477
5460.30	83.89	0.0352217
5480.30	83.55	0.0352070
5500.30	83.22	0.0352356
5520.30	82.89	0.0351350
5540.30	82.55	0.0351706
5560.30	82.22	0.0351546
5580.30	81.89	0.0350522
5600.30	81.55	0.0351346
5620.30	81.22	0.0352001
5640.30	80.89	0.0350617
5660.30	80.55	0.0349756
5680.30	80.22	0.0350348
5700.30	79.89	0.0350601
5720.30	79.56	0.0349621
5740.30	79.22	0.0350841
5760.30	78.89	0.0350660
5780.30	78.55	0.0350441
5800.30	78.22	0.0349898
5820.30	77.89	0.0349413
5840.30	77.55	0.0350566
5860.30	77.22	0.0349733
5880.30	76.89	0.0349465
5900.30	76.55	0.0350063
5920.30	76.22	0.0349343
5940.30	75.89	0.0349225
5960.30	75.55	0.0349475
5980.30	75.22	0.0350225
6000.30	74.89	0.0350181
6020.30	74.55	0.0348326
6040.30	74.22	0.0348001
6060.30	73.89	0.0349871
6080.30	73.56	0.0346148
6100.30	73.22	0.0349869
6120.30	72.89	0.0349298
6140.30	72.56	0.0349238
6160.30	72.22	0.0347864
6180.30	71.89	0.0349285
6200.30	71.55	0.0348388
6220.30	71.22	0.0348156
6240.30	70.89	0.0348225
6260.30	70.55	0.0351845
6280.30	70.22	0.0347727
6300.30	69.89	0.0346329
6320.30	69.56	0.0346754
6340.30	69.22	0.0347412
6360.30	68.89	0.0347264
6380.30	68.56	0.0341826
6400.30	68.22	0.0348149
6420.30	67.89	0.0347616
6440.30	67.56	0.0347977
6460.30	67.22	0.0347025
6480.30	66.88	0.0351458
6500.30	66.55	0.0345704
6520.30	66.22	0.0345970
6540.30	65.89	0.0345684
6560.30	65.56	0.0346383
6580.30	65.22	0.0346729
6600.30	64.89	0.0346756
6620.30	64.56	0.0346829
6640.30	64.22	0.0346753
6660.30	63.89	0.0346380
6680.30	63.56	0.0346384
6700.30	63.22	0.0346573
6720.30	62.89	0.0346507
6740.30	62.56	0.0346704
6760.30	62.22	0.0346557
6780.30	61.89	0.0345821
6800.30	61.56	0.0345655
6820.30	61.22	0.0345940
6840.30	60.89	0.0345848
6860.30	60.55	0.0345667
6880.30	60.22	0.0345763
6900.30	59.89	0.0345977
6920.30	59.55	0.0345866
6940.30	59.22	0.0345361
6960.30	58.89	0.0345616
6980.30	58.56	0.0345594
7000.30	58.22	0.0345222
7020.30	57.89	0.0345355
7040.30	57.56	0.0345091
7060.30	57.22	0.0345339
7080.30	56.89	0.0345632
7100.30	56.56	0.0345100
7120.30	56.23	0.0338649
7140.30	55.89	0.0344684
7160.30	55.56	0.0347343
7180.30	55.22	0.0346134
7200.30	54.89	0.0345530
7220.30	54.56	0.0343920
7240.30	54.22	0.0344946
7260.30	53.89	0.0344455
7280.30	53.55	0.0344151
7300.30	53.22	0.0344144
7320.30	52.89	0.0343968
7340.30	52.56	0.0344233
7360.30	52.22	0.0344525
7380.30	51.89	0.0344735
7400.30	51.55	0.0344261
7420.30	51.22	0.0343793
7440.30	50.89	0.0343289
7460.30	50.56	0.0343924
7480.30	50.22	0.0343294
7500.30	49.89	0.0344912
7520.30	50.04	0.541498
7540.30	50.24	1.67467
7560.30	49.04	0.290815
7580.30	48.59	0.0985516
7600.30	48.24	0.0699868
7620.30	47.91	0.0635304
7640.30	47.57	0.0593589
7660.30	47.23	0.0563866
7680.30	46.90	0.0536585
7700.30	46.57	0.0522540
7720.30	46.23	0.0510703
7740.30	45.90	0.0499553
7760.30	45.56	0.0491615
7780.30	45.23	0.0478920
7800.30	44.90	0.0471486
7820.30	44.56	0.0464073
7840.30	44.23	0.0458484
7860.30	43.90	0.0451660
7880.30	43.56	0.0446015
7900.30	43.23	0.0440248
7920.30	42.89	0.0434228
7940.30	42.56	0.0430429
7960.30	42.23	0.0426413
7980.30	41.89	0.0421111
8000.30	41.56	0.0417022
8020.30	41.23	0.0413465
8040.30	40.89	0.0409612
8060.30	40.56	0.0405050
8080.30	40.23	0.0401275
8100.30	39.89	0.0397724
8120.30	39.56	0.0395363
8140.30	39.22	0.0393115
8160.30	38.89	0.0389270
8180.30	38.56	0.0386702
8200.30	38.22	0.0383785
8220.30	37.89	0.0381264
8240.30	37.56	0.0378895
8260.30	37.22	0.0377235
8280.30	36.89	0.0374872
8300.30	36.56	0.0372512
8320.30	36.22	0.0369946
8340.30	35.89	0.0368954
8360.30	35.56	0.0366455
8380.30	35.22	0.0360898
8400.30	34.89	0.0361752
8420.30	34.56	0.0360940
8440.30	34.22	0.0358624
8460.30	33.89	0.0357427
8480.30	33.55	0.0356172
8500.30	33.22	0.0354071
8520.30	32.89	0.0352248
8540.30	32.56	0.0350322
8560.30	32.22	0.0349687
8580.30	31.89	0.0347554
8600.30	31.55	0.0348100
8620.30	31.22	0.0346096
8640.30	30.89	0.0344800
8660.30	30.55	0.0343152
8680.30	30.22	0.0343629
8700.30	29.89	0.0341095
8720.30	29.55	0.0340976
8740.30	29.22	0.0339871
8760.30	28.89	0.0336437
8780.30	28.55	0.0338590
8800.30	28.22	0.0333813
8820.30	27.89	0.0335887
8840.30	27.55	0.0332727
8860.30	27.22	0.0333501
8880.30	26.89	0.0333180
8900.30	26.55	0.0332701
8920.30	26.22	0.0330972
8940.30	25.89	0.0330372
8960.30	25.56	0.0328288
8980.30	25.22	0.0327281
9000.30	24.89	0.0327228
9020.30	24.55	0.0325746
9040.30	24.22	0.0325661
9060.30	23.88	0.0325356
9080.30	23.55	0.0322639
9100.30	23.22	0.0322003
9120.30	22.89	0.0321645
9140.30	22.55	0.0320665
9160.30	22.22	0.0320080
9180.30	21.89	0.0319675
9200.30	21.55	0.0318356
9220.30	21.22	0.0317944
9240.30	20.89	0.0317753
9260.30	20.55	0.0316252
9280.30	20.22	0.0315616
9300.30	19.89	0.0314421
9320.30	19.55	0.0313966
9340.30	19.22	0.0313336
9360.30	18.88	0.0312839
9380.30	18.55	0.0311628
9400.30	18.22	0.0311127
9420.30	17.89	0.0310716
9440.30	17.55	0.0310350
9460.30	17.22	0.0309888
9480.30	16.89	0.0308854
9500.30	16.55	0.0308333
9520.30	16.22	0.0307538
9540.30	15.88	0.0306776
9560.30	15.55	0.0306454
9580.30	15.22	0.0305789
9600.30	14.89	0.0304707
9620.30	14.55	0.0304423
9640.30	14.22	0.0304258
9660.30	13.88	0.0303164
9680.30	13.55	0.0302620
9700.30	13.22	0.0301783
9720.30	12.88	0.0301691
9740.30	12.55	0.0300839
9760.30	12.22	0.0300048
9780.30	11.89	0.0300080
9800.30	11.55	0.0299959
9820.30	11.22	0.0299099
9840.30	10.88	0.0298160
9860.30	10.55	0.0297474
9880.30	10.22	0.0296871
9900.30	9.88	0.0296695
9920.30	9.55	0.0296313
9940.30	9.22	0.0295845
9960.30	8.88	0.0295042
9980.30	8.55	0.0294168
10000.3	8.22	0.0294338
10020.3	7.88	0.0293706
10040.3	7.55	0.0293332
10060.3	7.22	0.0292544
10080.3	6.88	0.0292478
10100.3	6.55	0.0324979
10120.3	6.22	0.0305422
10140.3	5.88	0.0294737
10160.3	5.55	0.0291201
10180.3	5.22	0.0290196
10200.3	4.88	0.0289317
10220.3	4.55	0.0289133
10240.3	4.22	0.0289002
10260.3	3.88	0.0288352
10280.3	3.55	0.0287911
10300.3	3.22	0.0287233
10320.3	2.88	0.0287638
10340.3	2.55	0.0287390
10360.3	2.22	0.0287233
10380.3	1.88	0.0286550
10400.3	1.55	0.0286438
10420.3	1.22	0.0286205
10440.3	0.88	0.0285931
10460.3	0.55	0.0285877
10480.3	0.22	0.0285928
10500.2	-0.12	0.0285485