File: Differential scanning calorimetry/12OCB Squalene/12OCB SqE wt fraction 059.txt
Filename	Sq12OCB59T150
Instrument name	DSC2A-00101 (192.168.10.4)
Operator	Yuma
rundate	2/9/2021
Sample name	Sq12OCB59T150
proceduresegments	Jump 150.00 °C; Isothermal 10.0 min; Jump 0.00 °C; Isothermal 5.0 min; Mark End of Cycle ; Ramp 5.00 °C/min to 150.00 °C; Mark End of Cycle ; Ramp 5.00 °C/min to 0.00 °C; Mark End of Cycle ; Ramp 5.00 °C/min to 150.00 °C; Mark End of Cycle ; Ramp 1.00 °C/min to 0.00 °C; Mark End of Cycle ; Ramp 5.00 °C/min to 150.00 °C; Mark End of Cycle ; Ramp 10.00 °C/min to 0.00 °C; Mark End of Cycle ; Ramp 10.00 °C/min to 150.00 °C; Mark End of Cycle ; Jump 0.00 °C; Mark End of Cycle
[step]
Ramp 1.00 °C/min to 0.00 °C
Time	Temperature	Heat Flow (Normalized)
s	°C	W/g
6300.50	149.03	-0.183374
6330.50	149.40	0.0193393
6360.50	148.90	0.0301794
6390.50	148.41	0.0309801
6420.50	147.91	0.0310913
6450.50	147.41	0.0309510
6480.50	146.91	0.0309328
6510.50	146.41	0.0308708
6540.50	145.91	0.0307704
6570.50	145.41	0.0307765
6600.50	144.91	0.0305928
6630.50	144.41	0.0306939
6660.50	143.91	0.0306405
6690.50	143.41	0.0306519
6720.50	142.91	0.0305683
6750.50	142.41	0.0305114
6780.50	141.91	0.0305139
6810.50	141.41	0.0304835
6840.50	140.91	0.0304536
6870.50	140.41	0.0304941
6900.50	139.91	0.0304772
6930.50	139.41	0.0303674
6960.50	138.91	0.0304696
6990.50	138.41	0.0305037
7020.50	137.91	0.0303858
7050.50	137.41	0.0302548
7080.50	136.91	0.0304483
7110.50	136.41	0.0304683
7140.50	135.91	0.0304029
7170.50	135.41	0.0304819
7200.50	134.91	0.0303767
7230.50	134.41	0.0303787
7260.50	133.91	0.0302838
7290.50	133.41	0.0303784
7320.50	132.91	0.0302812
7350.50	132.41	0.0303433
7380.50	131.91	0.0303047
7410.50	131.41	0.0303370
7440.50	130.91	0.0304246
7470.50	130.41	0.0302585
7500.50	129.91	0.0303770
7530.50	129.41	0.0303970
7560.50	128.91	0.0304056
7590.50	128.41	0.0303021
7620.50	127.91	0.0302763
7650.50	127.41	0.0303237
7680.50	126.91	0.0302892
7710.50	126.41	0.0302729
7740.50	125.91	0.0302577
7770.50	125.41	0.0301599
7800.50	124.91	0.0301673
7830.50	124.41	0.0302792
7860.50	123.91	0.0302810
7890.50	123.41	0.0302262
7920.50	122.91	0.0302483
7950.50	122.41	0.0302219
7980.50	121.92	0.0301775
8010.50	121.42	0.0302028
8040.50	120.91	0.0301976
8070.50	120.41	0.0302129
8100.50	119.91	0.0302424
8130.50	119.41	0.0301807
8160.50	118.91	0.0301403
8190.50	118.42	0.0301661
8220.50	117.92	0.0302595
8250.50	117.41	0.0302162
8280.50	116.92	0.0302392
8310.50	116.41	0.0303063
8340.50	115.91	0.0301273
8370.50	115.42	0.0301478
8400.50	114.91	0.0301881
8430.50	114.42	0.0302280
8460.50	113.92	0.0301979
8490.50	113.41	0.0301594
8520.50	112.92	0.0301568
8550.50	112.42	0.0301056
8580.50	111.92	0.0301274
8610.50	111.42	0.0302197
8640.50	110.92	0.0301426
8670.50	110.42	0.0301231
8700.50	109.92	0.0301451
8730.50	109.41	0.0301685
8760.50	108.92	0.0301463
8790.50	108.42	0.0301415
8820.50	107.91	0.0301681
8850.50	107.42	0.0300893
8880.50	106.92	0.0301164
8910.50	106.42	0.0302087
8940.50	105.91	0.0302086
8970.50	105.42	0.0301530
9000.50	104.92	0.0301824
9030.50	104.42	0.0302404
9060.50	103.92	0.0302184
9090.50	103.42	0.0301820
9120.50	102.92	0.0301685
9150.50	102.42	0.0302036
9180.50	101.92	0.0301899
9210.50	101.42	0.0301508
9240.50	100.92	0.0302107
9270.50	100.42	0.0301965
9300.50	99.92	0.0302178
9330.50	99.42	0.0303079
9360.50	98.92	0.0302641
9390.50	98.42	0.0302706
9420.50	97.92	0.0302970
9450.50	97.42	0.0302792
9480.50	96.92	0.0302988
9510.50	96.42	0.0302967
9540.50	95.92	0.0303785
9570.50	95.42	0.0302561
9600.50	94.92	0.0303350
9630.50	94.42	0.0304253
9660.50	93.92	0.0304372
9690.50	93.42	0.0303888
9720.50	92.92	0.0304576
9750.50	92.42	0.0304836
9780.50	91.92	0.0304840
9810.50	91.42	0.0304992
9840.50	90.92	0.0305970
9870.50	90.42	0.0305806
9900.50	89.92	0.0306402
9930.50	89.42	0.0306485
9960.50	88.92	0.0307173
9990.50	88.42	0.0308331
10020.5	87.92	0.0307459
10050.5	87.42	0.0308643
10080.5	86.92	0.0308988
10110.5	86.42	0.0309442
10140.5	85.92	0.0310278
10170.5	85.42	0.0311218
10200.5	84.92	0.0312404
10230.5	84.42	0.0313153
10260.5	83.92	0.0315229
10290.5	83.42	0.0316045
10320.5	82.92	0.0317701
10350.5	82.42	0.0319111
10380.5	81.92	0.0324619
10410.5	81.44	0.0836182
10440.5	80.94	0.0871017
10470.5	80.43	0.0717737
10500.5	79.93	0.0593736
10530.5	79.43	0.0585525
10560.5	78.93	0.0563381
10590.5	78.42	0.0524399
10620.5	77.92	0.0494587
10650.5	77.42	0.0472213
10680.5	76.92	0.0454823
10710.5	76.42	0.0435824
10740.5	75.92	0.0422609
10770.5	75.42	0.0410619
10800.5	74.92	0.0399911
10830.5	74.42	0.0389055
10860.5	73.92	0.0379786
10890.5	73.42	0.0371533
10920.5	72.92	0.0363532
10950.5	72.42	0.0357522
10980.5	71.92	0.0352681
11010.5	71.42	0.0348027
11040.5	70.92	0.0343887
11070.5	70.42	0.0339712
11100.5	69.92	0.0336699
11130.5	69.42	0.0333709
11160.5	68.92	0.0330186
11190.5	68.42	0.0328209
11220.5	67.92	0.0325990
11250.5	67.42	0.0323108
11280.5	66.92	0.0320491
11310.5	66.42	0.0318209
11340.5	65.92	0.0317111
11370.5	65.42	0.0314884
11400.5	64.92	0.0312319
11430.5	64.42	0.0310771
11460.5	63.92	0.0309252
11490.5	63.42	0.0307545
11520.5	62.92	0.0306510
11550.5	62.42	0.0305468
11580.5	61.92	0.0304134
11610.5	61.42	0.0303349
11640.5	60.91	0.0301889
11670.5	60.42	0.0301013
11700.5	59.92	0.0299999
11730.5	59.42	0.0298594
11760.5	58.92	0.0298553
11790.5	58.41	0.0297754
11820.5	57.92	0.0296390
11850.5	57.42	0.0295750
11880.5	56.92	0.0295329
11910.5	56.41	0.0294797
11940.5	55.92	0.0293860
11970.5	55.42	0.0293185
12000.5	54.92	0.0292531
12030.5	54.41	0.0292329
12060.5	53.91	0.0291883
12090.5	53.42	0.0290951
12120.5	52.91	0.0289925
12150.5	52.42	0.0290086
12180.5	51.92	0.0289361
12210.5	51.42	0.0289241
12240.5	50.91	0.0289171
12270.5	50.42	0.0288092
12300.5	49.91	0.0287642
12330.5	49.42	0.0286867
12360.5	48.92	0.0286339
12390.5	48.41	0.0286123
12420.5	47.91	0.0285120
12450.5	47.42	0.0287196
12480.5	46.91	0.0284997
12510.5	46.41	0.0283829
12540.5	45.91	0.0285001
12570.5	45.41	0.0284950
12600.5	44.91	0.0283633
12630.5	44.41	0.0283019
12660.5	44.56	0.336172
12690.5	43.85	1.13923
12720.5	42.92	0.0370447
12750.5	42.41	0.0275999
12780.5	41.91	0.0254148
12810.5	41.41	0.0246101
12840.5	40.91	0.0240832
12870.5	40.41	0.0238511
12900.5	39.91	0.0235188
12930.5	39.41	0.0232515
12960.5	38.91	0.0230819
12990.5	38.41	0.0228618
13020.5	37.91	0.0226606
13050.5	37.41	0.0225272
13080.5	36.91	0.0223359
13110.5	36.41	0.0222275
13140.5	35.91	0.0220800
13170.5	35.41	0.0219897
13200.5	34.91	0.0217814
13230.5	34.41	0.0217352
13260.5	33.91	0.0216272
13290.5	33.41	0.0215369
13320.5	32.91	0.0214106
13350.5	32.41	0.0213492
13380.5	31.91	0.0212648
13410.5	31.41	0.0211259
13440.5	30.91	0.0210385
13470.5	30.41	0.0209513
13500.5	29.91	0.0208525
13530.5	29.41	0.0207743
13560.5	28.91	0.0207547
13590.5	28.41	0.0206557
13620.5	27.91	0.0204979
13650.5	27.41	0.0204531
13680.5	26.91	0.0204062
13710.5	26.41	0.0203290
13740.5	25.91	0.0202879
13770.5	25.41	0.0201276
13800.5	24.91	0.0201015
13830.5	24.41	0.0200826
13860.5	23.91	0.0200144
13890.5	23.41	0.0200144
13920.5	22.91	0.0198468
13950.5	22.41	0.0198017
13980.5	21.91	0.0197621
14010.5	21.41	0.0196933
14040.5	20.91	0.0195691
14070.5	20.41	0.0196322
14100.5	19.91	0.0198846
14130.5	19.41	0.0195147
14160.5	18.91	0.0193006
14190.5	18.41	0.0193818
14220.5	17.91	0.0192709
14250.5	17.41	0.0191775
14280.5	16.91	0.0195598
14310.5	16.41	0.0191059
14340.5	15.91	0.0189443
14370.5	15.41	0.0188184
14400.5	14.91	0.0187894
14430.5	14.41	0.0187520
14460.5	13.91	0.0185903
14490.5	13.41	0.0185939
14520.5	12.91	0.0185531
14550.5	12.41	0.0185062
14580.5	11.91	0.0184723
14610.5	11.41	0.0183603
14640.5	10.91	0.0182383
14670.5	10.41	0.0181756
14700.5	9.91	0.0181590
14730.5	9.41	0.0181012
14760.5	8.91	0.0179493
14790.5	8.40	0.0179255
14820.5	7.91	0.0178079
14850.5	7.41	0.0178479
14880.5	6.91	0.0178169
14910.5	6.41	0.0178036
14940.5	5.90	0.0177071
14970.5	5.41	0.0175499
15000.5	4.91	0.0174767
15030.5	4.41	0.0174230
15060.5	3.91	0.0173756
15090.5	3.40	0.0173730
15120.5	2.91	0.0173586
15150.5	2.41	0.0172621
15180.5	1.91	0.0172160
15210.5	1.41	0.0171926
15240.5	0.90	0.0172225
15270.5	0.40	0.0172427
15300.4	-0.09	0.0172229