File: Differential scanning calorimetry/12OCB Squalene/12OCB SqE wt fraction 458.txt
Filename	Sq12OCB458
Instrument name	DSC2A-00101 (192.168.10.4)
Operator	Yuma
rundate	2/3/2021
Sample name	Sq12OCB458
proceduresegments	Jump 100.00 °C; Isothermal 10.0 min; Jump 0.00 °C; Isothermal 5.0 min; Mark End of Cycle ; Ramp 5.00 °C/min to 100.00 °C; Mark End of Cycle ; Ramp 5.00 °C/min to 0.00 °C; Mark End of Cycle ; Ramp 5.00 °C/min to 100.00 °C; Mark End of Cycle ; Ramp 1.00 °C/min to 0.00 °C; Mark End of Cycle ; Ramp 5.00 °C/min to 100.00 °C; Mark End of Cycle ; Ramp 10.00 °C/min to 0.00 °C; Mark End of Cycle ; Ramp 10.00 °C/min to 100.00 °C; Mark End of Cycle ; Jump 0.00 °C; Mark End of Cycle
[step]
Ramp 1.00 °C/min to 0.00 °C
Time	Temperature	Heat Flow (Normalized)
s	°C	W/g
4500.30	98.88	-0.156573
4520.30	99.41	-0.0334423
4540.30	99.12	0.0236970
4560.30	98.80	0.0272759
4580.30	98.46	0.0283904
4600.30	98.13	0.0286738
4620.30	97.80	0.0287969
4640.30	97.47	0.0288145
4660.30	97.13	0.0287988
4680.30	96.80	0.0288174
4700.30	96.47	0.0288288
4720.30	96.13	0.0288062
4740.30	95.80	0.0288529
4760.30	95.47	0.0288650
4780.30	95.13	0.0288828
4800.30	94.80	0.0288986
4820.30	94.47	0.0288944
4840.30	94.13	0.0289116
4860.30	93.80	0.0288915
4880.30	93.47	0.0289052
4900.30	93.13	0.0289124
4920.30	92.80	0.0289432
4940.30	92.47	0.0289116
4960.30	92.13	0.0289020
4980.30	91.80	0.0289667
5000.30	91.47	0.0290191
5020.30	91.13	0.0289281
5040.30	90.80	0.0289528
5060.30	90.47	0.0289839
5080.30	90.13	0.0289975
5100.30	89.80	0.0290240
5120.30	89.47	0.0290423
5140.30	89.13	0.0290246
5160.30	88.80	0.0290725
5180.30	88.47	0.0290983
5200.30	88.14	0.0290888
5220.30	87.80	0.0291030
5240.30	87.47	0.0291007
5260.30	87.13	0.0291396
5280.30	86.80	0.0291544
5300.30	86.47	0.0291785
5320.30	86.14	0.0291713
5340.30	85.80	0.0291591
5360.30	85.47	0.0291904
5380.30	85.14	0.0292341
5400.30	84.80	0.0292402
5420.30	84.47	0.0292829
5440.30	84.14	0.0293034
5460.30	83.80	0.0293544
5480.30	83.47	0.0293343
5500.30	83.14	0.0293238
5520.30	82.80	0.0293348
5540.30	82.47	0.0293218
5560.30	82.14	0.0293740
5580.30	81.80	0.0293898
5600.30	81.47	0.0293947
5620.30	81.14	0.0293970
5640.30	80.80	0.0293791
5660.30	80.47	0.0294040
5680.30	80.13	0.0293860
5700.30	79.80	0.0294279
5720.30	79.47	0.0294962
5740.30	79.14	0.0294863
5760.30	78.80	0.0294739
5780.30	78.47	0.0294672
5800.30	78.14	0.0294952
5820.30	77.80	0.0294987
5840.30	77.47	0.0295203
5860.30	77.14	0.0295102
5880.30	76.80	0.0295125
5900.30	76.47	0.0295170
5920.30	76.14	0.0295085
5940.30	75.80	0.0295170
5960.30	75.47	0.0295238
5980.30	75.14	0.0295470
6000.30	74.80	0.0295544
6020.30	74.47	0.0295593
6040.30	74.14	0.0295496
6060.30	73.80	0.0295474
6080.30	73.47	0.0296073
6100.30	73.14	0.0296008
6120.30	72.80	0.0296317
6140.30	72.47	0.0295998
6160.30	72.14	0.0295797
6180.30	71.80	0.0295992
6200.30	71.47	0.0296423
6220.30	71.14	0.0296171
6240.30	70.80	0.0296541
6260.30	70.47	0.0296717
6280.30	70.14	0.0296255
6300.30	69.80	0.0296847
6320.30	69.47	0.0297170
6340.30	69.14	0.0297222
6360.30	68.80	0.0297206
6380.30	68.47	0.0297070
6400.30	68.14	0.0297144
6420.30	67.80	0.0297435
6440.30	67.47	0.0297750
6460.30	67.14	0.0298074
6480.30	66.80	0.0298010
6500.30	66.47	0.0297862
6520.30	66.14	0.0297816
6540.30	65.80	0.0298218
6560.30	65.47	0.0298283
6580.30	65.14	0.0298664
6600.30	64.80	0.0299044
6620.30	64.47	0.0298746
6640.30	64.14	0.0298661
6660.30	63.80	0.0299005
6680.30	63.47	0.0298893
6700.30	63.14	0.0299043
6720.30	62.80	0.0298738
6740.30	62.47	0.0298484
6760.30	62.14	0.0298242
6780.30	61.80	0.0298314
6800.30	61.47	0.0298609
6820.30	61.14	0.0298161
6840.30	60.80	0.0298525
6860.30	60.47	0.0298746
6880.30	60.14	0.0299205
6900.30	59.80	0.0298758
6920.30	59.47	0.0298309
6940.30	59.14	0.0298218
6960.30	58.80	0.0298063
6980.30	58.47	0.0298003
7000.30	58.14	0.0298095
7020.30	57.80	0.0298148
7040.30	57.47	0.0298452
7060.30	57.14	0.0298063
7080.30	56.80	0.0298423
7100.30	56.47	0.0298251
7120.30	56.14	0.0299284
7140.30	55.80	0.0305024
7160.30	55.47	0.0308201
7180.30	55.14	0.0310827
7200.30	54.80	0.0314775
7220.30	54.47	0.0320939
7240.30	54.14	0.0329578
7260.30	53.81	0.0334735
7280.30	53.47	0.0336152
7300.30	53.14	0.0337441
7320.30	52.81	0.0338202
7340.30	52.47	0.0338634
7360.30	52.14	0.0339918
7380.30	51.81	0.0340500
7400.30	51.47	0.0340725
7420.30	51.14	0.0342255
7440.30	50.81	0.0346292
7460.30	50.64	0.185167
7480.30	51.09	1.35490
7500.30	50.50	1.20316
7520.30	49.60	0.248987
7540.30	49.17	0.0830671
7560.30	48.82	0.0567241
7580.30	48.48	0.0514516
7600.30	48.15	0.0480334
7620.30	47.81	0.0457749
7640.30	47.48	0.0443424
7660.30	47.14	0.0431622
7680.30	46.81	0.0420549
7700.30	46.48	0.0410819
7720.30	46.14	0.0403751
7740.30	45.81	0.0397215
7760.30	45.48	0.0390342
7780.30	45.14	0.0384101
7800.30	44.81	0.0378673
7820.30	44.48	0.0374252
7840.30	44.14	0.0369665
7860.30	43.81	0.0364725
7880.30	43.47	0.0360493
7900.30	43.14	0.0356026
7920.30	42.81	0.0351594
7940.30	42.47	0.0348258
7960.30	42.14	0.0344401
7980.30	41.81	0.0341321
8000.30	41.47	0.0337757
8020.30	41.14	0.0334862
8040.30	40.81	0.0331642
8060.30	40.47	0.0328927
8080.30	40.14	0.0326508
8100.30	39.81	0.0323689
8120.30	39.47	0.0320843
8140.30	39.14	0.0318663
8160.30	38.80	0.0316505
8180.30	38.47	0.0314275
8200.30	38.14	0.0311985
8220.30	37.80	0.0309879
8240.30	37.47	0.0307984
8260.30	37.14	0.0306291
8280.30	36.80	0.0304163
8300.30	36.47	0.0302172
8320.30	36.14	0.0300554
8340.30	35.80	0.0299066
8360.30	35.47	0.0296972
8380.30	35.14	0.0295449
8400.30	34.80	0.0294372
8420.30	34.47	0.0292322
8440.30	34.14	0.0291485
8460.30	33.80	0.0290012
8480.30	33.47	0.0288851
8500.30	33.14	0.0286768
8520.30	32.80	0.0285867
8540.30	32.47	0.0284964
8560.30	32.14	0.0283510
8580.30	31.80	0.0282306
8600.30	31.47	0.0280784
8620.30	31.14	0.0279830
8640.30	30.80	0.0278625
8660.30	30.47	0.0277838
8680.30	30.13	0.0277015
8700.30	29.80	0.0275927
8720.30	29.47	0.0274630
8740.30	29.14	0.0274026
8760.30	28.80	0.0273006
8780.30	28.47	0.0272126
8800.30	28.13	0.0271440
8820.30	27.80	0.0269923
8840.30	27.47	0.0269290
8860.30	27.13	0.0268298
8880.30	26.80	0.0268257
8900.30	26.47	0.0267056
8920.30	26.13	0.0266347
8940.30	25.80	0.0265125
8960.30	25.47	0.0264319
8980.30	25.13	0.0263735
9000.30	24.80	0.0262033
9020.30	24.47	0.0261708
9040.30	24.13	0.0260784
9060.30	23.80	0.0260020
9080.30	23.47	0.0259123
9100.30	23.13	0.0258542
9120.30	22.80	0.0257877
9140.30	22.47	0.0256912
9160.30	22.13	0.0256214
9180.30	21.80	0.0255160
9200.30	21.47	0.0254421
9220.30	21.13	0.0253844
9240.30	20.80	0.0253341
9260.30	20.46	0.0252757
9280.30	20.13	0.0252474
9300.30	19.80	0.0251791
9320.30	19.47	0.0251082
9340.30	19.13	0.0250375
9360.30	18.80	0.0249595
9380.30	18.47	0.0249245
9400.30	18.13	0.0248669
9420.30	17.80	0.0247762
9440.30	17.47	0.0247312
9460.30	17.13	0.0246320
9480.30	16.80	0.0245464
9500.30	16.46	0.0244915
9520.30	16.13	0.0244127
9540.30	15.80	0.0243775
9560.30	15.47	0.0242858
9580.30	15.13	0.0242262
9600.30	14.80	0.0241791
9620.30	14.47	0.0241034
9640.30	14.13	0.0240998
9660.30	13.80	0.0240511
9680.30	13.46	0.0240083
9700.30	13.13	0.0239193
9720.30	12.80	0.0239269
9740.30	12.47	0.0238355
9760.30	12.13	0.0238325
9780.30	11.80	0.0237781
9800.30	11.46	0.0237513
9820.30	11.13	0.0236499
9840.30	10.80	0.0235926
9860.30	10.46	0.0235446
9880.30	10.13	0.0234829
9900.30	9.80	0.0234291
9920.30	9.47	0.0233731
9940.30	9.13	0.0233310
9960.30	8.80	0.0232014
9980.30	8.46	0.0231304
10000.3	8.13	0.0230999
10020.3	7.80	0.0230731
10040.3	7.46	0.0229826
10060.3	7.13	0.0230749
10080.3	6.80	0.0229595
10100.3	6.46	0.0228518
10120.3	6.13	0.0227830
10140.3	5.80	0.0227281
10160.3	5.46	0.0227045
10180.3	5.13	0.0226546
10200.3	4.80	0.0250412
10220.3	4.46	0.0233528
10240.3	4.13	0.0227436
10260.3	3.80	0.0225640
10280.3	3.46	0.0224812
10300.3	3.13	0.0224288
10320.3	2.80	0.0223559
10340.3	2.46	0.0223552
10360.3	2.13	0.0223203
10380.3	1.80	0.0223130
10400.3	1.46	0.0223289
10420.3	1.13	0.0222848
10440.3	0.80	0.0222491
10460.3	0.46	0.0222016
10480.3	0.13	0.0221881
10500.2	-0.20	0.0222237