File: Differential scanning calorimetry/8OCB Squalane/8OCB SqA wt fraction 042.txt
Filename	8OCBSA042
Instrument name	DSC2A-00101 (192.168.10.4)
Operator	Yuma
rundate	5/28/2021
Sample name	8OCBSA042
proceduresegments	Data Off ; Equilibrate 150.00 °C; Isothermal 10.0 min; Equilibrate 100.00 °C; Isothermal 5.0 min; Data On ; Ramp 1.00 °C/min to 0.00 °C; Ramp 5.00 °C/min to 150.00 °C; Data Off ; Isothermal 10.0 min; Modulate Temperature 1.00 °C for 60.0 s; Equilibrate 100.00 °C; Isothermal 10.0 min; Data On ; Ramp 1.00 °C/min to 0.00 °C; Ramp 3.00 °C/min to 100.00 °C; Jump 30.00 °C
[step]
Ramp 1.00 °C/min to 0.00 °C
Time	Temperature	Heat Flow (Normalized)
s	°C	W/g
0.00000	99.84	2.03718e-3
20.0000	99.66	0.0176282
40.0000	99.35	0.0308819
60.0000	99.02	0.0329245
80.0000	98.69	0.0338225
100.000	98.35	0.0340486
120.000	98.02	0.0341554
140.000	97.69	0.0341599
160.000	97.35	0.0341680
180.000	97.02	0.0341900
200.000	96.69	0.0341728
220.000	96.35	0.0341794
240.000	96.02	0.0341386
260.000	95.69	0.0340910
280.000	95.35	0.0341148
300.000	95.02	0.0340915
320.000	94.69	0.0340807
340.000	94.36	0.0340483
360.000	94.02	0.0341124
380.000	93.69	0.0340489
400.000	93.35	0.0340434
420.000	93.02	0.0340143
440.000	92.69	0.0339921
460.000	92.36	0.0340145
480.000	92.02	0.0341865
500.000	91.69	0.0340169
520.000	91.35	0.0338919
540.000	91.02	0.0338703
560.000	90.69	0.0339012
580.000	90.36	0.0338967
600.000	90.02	0.0338646
620.000	89.69	0.0339080
640.000	89.36	0.0338980
660.000	89.02	0.0338889
680.000	88.69	0.0338833
700.000	88.36	0.0338527
720.000	88.02	0.0338378
740.000	87.69	0.0338307
760.000	87.36	0.0338557
780.000	87.02	0.0338612
800.000	86.69	0.0338963
820.000	86.36	0.0338688
840.000	86.02	0.0338115
860.000	85.69	0.0338740
880.000	85.36	0.0338761
900.000	85.02	0.0338641
920.000	84.69	0.0338833
940.000	84.36	0.0338393
960.000	84.02	0.0338608
980.000	83.69	0.0338932
1000.00	83.36	0.0339567
1020.00	83.02	0.0339777
1040.00	82.69	0.0339335
1060.00	82.36	0.0338850
1080.00	82.02	0.0339419
1100.00	81.69	0.0339945
1120.00	81.36	0.0339939
1140.00	81.03	0.0339367
1160.00	80.69	0.0339988
1180.00	80.36	0.0341113
1200.00	80.02	0.0340851
1220.00	79.69	0.0340555
1240.00	79.36	0.0340888
1260.00	79.02	0.0342026
1280.00	78.69	0.0342391
1300.00	78.36	0.0342749
1320.00	78.03	0.0342790
1340.00	77.69	0.0343327
1360.00	77.36	0.0343995
1380.00	77.03	0.0344727
1400.00	76.69	0.0345870
1420.00	76.36	0.0346671
1440.00	76.03	0.0347646
1460.00	75.69	0.0348557
1480.00	75.36	0.0350356
1500.00	75.03	0.0352893
1520.00	74.70	0.0356454
1540.00	74.37	0.0367462
1560.00	74.04	0.0413129
1580.00	73.71	0.0439197
1600.00	73.38	0.0450088
1620.00	73.04	0.0452469
1640.00	72.71	0.0451728
1660.00	72.38	0.0450995
1680.00	72.04	0.0454127
1700.00	71.71	0.0468955
1720.00	71.38	0.0470373
1740.00	71.04	0.0457332
1760.00	70.71	0.0440347
1780.00	70.37	0.0425462
1800.00	70.04	0.0413848
1820.00	69.70	0.0404483
1840.00	69.37	0.0396936
1860.00	69.03	0.0390015
1880.00	68.70	0.0384530
1900.00	68.37	0.0380366
1920.00	68.03	0.0377537
1940.00	67.70	0.0374072
1960.00	67.37	0.0371625
1980.00	67.03	0.0369759
2000.00	66.70	0.0367586
2020.00	66.37	0.0366278
2040.00	66.03	0.0364676
2060.00	65.70	0.0362686
2080.00	65.37	0.0361284
2100.00	65.03	0.0360614
2120.00	64.70	0.0359738
2140.00	64.37	0.0359104
2160.00	64.03	0.0358592
2180.00	63.70	0.0358741
2200.00	63.37	0.0360402
2220.00	63.03	0.0364295
2240.00	62.70	0.0368241
2260.00	62.37	0.0367460
2280.00	62.03	0.0365491
2300.00	61.70	0.0363604
2320.00	61.37	0.0360089
2340.00	61.03	0.0355649
2360.00	60.70	0.0349710
2380.00	60.36	0.0344660
2400.00	60.03	0.0340584
2420.00	59.70	0.0337515
2440.00	59.36	0.0335169
2460.00	59.03	0.0332577
2480.00	58.70	0.0330633
2500.00	58.36	0.0328824
2520.00	58.03	0.0327213
2540.00	57.70	0.0325875
2560.00	57.36	0.0324686
2580.00	57.03	0.0323162
2600.00	56.70	0.0322084
2620.00	56.36	0.0320846
2640.00	56.03	0.0319664
2660.00	55.69	0.0319493
2680.00	55.36	0.0318391
2700.00	55.03	0.0317440
2720.00	54.70	0.0315939
2740.00	54.36	0.0315692
2760.00	54.03	0.0314897
2780.00	53.70	0.0314124
2800.00	53.36	0.0313320
2820.00	53.03	0.0312756
2840.00	52.70	0.0311955
2860.00	52.36	0.0310788
2880.00	52.03	0.0310935
2900.00	51.69	0.0310415
2920.00	51.36	0.0309226
2940.00	51.03	0.0308650
2960.00	50.70	0.0307839
2980.00	50.36	0.0307369
3000.00	50.03	0.0306904
3020.00	49.69	0.0306297
3040.00	49.36	0.0306007
3060.00	49.03	0.0305417
3080.00	48.70	0.0304790
3100.00	48.36	0.0304201
3120.00	48.03	0.0303240
3140.00	47.70	0.0303227
3160.00	47.36	0.0303816
3180.00	47.03	0.0302408
3200.00	46.69	0.0301421
3220.00	46.36	0.0300943
3240.00	46.03	0.0300983
3260.00	45.70	0.0300206
3280.00	45.36	0.0300050
3300.00	45.03	0.0299100
3320.00	44.70	0.0298941
3340.00	44.36	0.0298638
3360.00	44.03	0.0298041
3380.00	43.70	0.0297683
3400.00	43.36	0.0297106
3420.00	43.03	0.0296929
3440.00	42.70	0.0296830
3460.00	42.36	0.0296152
3480.00	42.03	0.0295647
3500.00	41.70	0.0295287
3520.00	41.36	0.0294668
3540.00	41.03	0.0294760
3560.00	40.70	0.0294367
3580.00	40.36	0.0294084
3600.00	40.03	0.0293556
3620.00	39.69	0.0293102
3640.00	39.36	0.0293008
3660.00	39.03	0.0292361
3680.00	38.70	0.0292183
3700.00	38.36	0.0291867
3720.00	38.03	0.0291820
3740.00	37.70	0.0291363
3760.00	37.36	0.0290914
3780.00	37.03	0.0290415
3800.00	36.70	0.0290059
3820.00	36.36	0.0289732
3840.00	36.03	0.0289263
3860.00	35.70	0.0288867
3880.00	35.36	0.0288487
3900.00	35.03	0.0288365
3920.00	34.70	0.0288173
3940.00	34.36	0.0287765
3960.00	34.03	0.0287220
3980.00	33.70	0.0286953
4000.00	33.36	0.0286552
4020.00	33.03	0.0286877
4040.00	32.70	0.0286636
4060.00	32.36	0.0285706
4080.00	32.03	0.0285156
4100.00	31.70	0.0284784
4120.00	31.36	0.0284530
4140.00	31.03	0.0284354
4160.00	30.70	0.0284295
4180.00	30.36	0.0284011
4200.00	30.03	0.0283508
4220.00	29.70	0.0283325
4240.00	29.36	0.0283217
4260.00	29.03	0.0282995
4280.00	28.70	0.0282500
4300.00	28.36	0.0282102
4320.00	28.03	0.0281661
4340.00	27.70	0.0281381
4360.00	27.36	0.0282608
4380.00	27.03	0.0282967
4400.00	26.70	0.0283052
4420.00	26.37	0.0283541
4440.00	26.81	0.428750
4460.00	28.34	1.81506
4480.00	26.79	1.15419
4500.00	25.17	0.146181
4520.00	24.71	0.0378487
4540.00	24.36	0.0272155
4560.00	24.02	0.0253850
4580.00	23.69	0.0243701
4600.00	23.36	0.0238577
4620.00	23.02	0.0235528
4640.00	22.69	0.0232756
4660.00	22.36	0.0231291
4680.00	22.02	0.0229778
4700.00	21.69	0.0228139
4720.00	21.36	0.0226713
4740.00	21.02	0.0225722
4760.00	20.69	0.0224508
4780.00	20.36	0.0223509
4800.00	20.02	0.0222340
4820.00	19.69	0.0221471
4840.00	19.36	0.0220675
4860.00	19.02	0.0219838
4880.00	18.69	0.0219231
4900.00	18.36	0.0218025
4920.00	18.02	0.0217504
4940.00	17.69	0.0216568
4960.00	17.36	0.0215463
4980.00	17.02	0.0214974
5000.00	16.69	0.0214269
5020.00	16.36	0.0213560
5040.00	16.02	0.0212931
5060.00	15.69	0.0212476
5080.00	15.36	0.0212135
5100.00	15.02	0.0211409
5120.00	14.69	0.0210516
5140.00	14.36	0.0210102
5160.00	14.02	0.0209789
5180.00	13.69	0.0209497
5200.00	13.35	0.0208791
5220.00	13.02	0.0207798
5240.00	12.69	0.0207122
5260.00	12.36	0.0206658
5280.00	12.02	0.0206448
5300.00	11.69	0.0205908
5320.00	11.36	0.0205130
5340.00	11.02	0.0204670
5360.00	10.69	0.0203653
5380.00	10.36	0.0203080
5400.00	10.02	0.0202644
5420.00	9.69	0.0202173
5440.00	9.36	0.0201488
5460.00	9.02	0.0200605
5480.00	8.69	0.0200379
5500.00	8.35	0.0199582
5520.00	8.02	0.0199086
5540.00	7.69	0.0198838
5560.00	7.36	0.0197961
5580.00	7.02	0.0196996
5600.00	6.69	0.0196354
5620.00	6.36	0.0195944
5640.00	6.02	0.0195470
5660.00	5.69	0.0195120
5680.00	5.35	0.0194350
5700.00	5.02	0.0193654
5720.00	4.69	0.0193074
5740.00	4.36	0.0192351
5760.00	4.02	0.0191730
5780.00	3.69	0.0191617
5800.00	3.35	0.0191861
5820.00	3.02	0.0191079
5840.00	2.69	0.0190347
5860.00	2.35	0.0189726
5880.00	2.02	0.0189316
5900.00	1.69	0.0189825
5920.00	1.36	0.0189278
5940.00	1.02	0.0188687
5960.00	0.69	0.0188230
5980.00	0.35	0.0187559
5999.90	0.02	0.0186914