File: Differential scanning calorimetry/8OCB Squalane/8OCB SqA wt fraction 523.txt
Filename	8OCBSA523
Instrument name	DSC2A-00101 (192.168.10.4)
Operator	Yuma
rundate	5/29/2021
Sample name	8OCBSA523
proceduresegments	Data Off ; Equilibrate 150.00 °C; Isothermal 10.0 min; Equilibrate 100.00 °C; Isothermal 5.0 min; Data On ; Ramp 1.00 °C/min to 0.00 °C; Ramp 5.00 °C/min to 150.00 °C; Data Off ; Isothermal 10.0 min; Modulate Temperature 1.00 °C for 60.0 s; Equilibrate 100.00 °C; Isothermal 10.0 min; Data On ; Ramp 1.00 °C/min to 0.00 °C; Ramp 3.00 °C/min to 100.00 °C; Jump 30.00 °C
[step]
Ramp 1.00 °C/min to 0.00 °C
Time	Temperature	Heat Flow (Normalized)
s	°C	W/g
0.00000	99.84	3.94124e-4
20.1000	99.66	0.0187274
40.2000	99.34	0.0310965
60.3000	99.01	0.0331697
80.4000	98.68	0.0339756
100.500	98.34	0.0342025
120.600	98.01	0.0343548
140.700	97.67	0.0343562
160.800	97.34	0.0342932
180.900	97.00	0.0343043
201.000	96.67	0.0342325
221.100	96.33	0.0342881
241.200	96.00	0.0342725
261.300	95.66	0.0342432
281.400	95.33	0.0342567
301.500	94.99	0.0341989
321.600	94.66	0.0341827
341.700	94.32	0.0342215
361.800	93.99	0.0341630
381.900	93.65	0.0341137
402.000	93.32	0.0340943
422.100	92.98	0.0341483
442.200	92.65	0.0341105
462.300	92.31	0.0341011
482.400	91.98	0.0341360
502.500	91.64	0.0340252
522.600	91.31	0.0340437
542.700	90.97	0.0340508
562.800	90.64	0.0340226
582.900	90.30	0.0340667
603.000	89.97	0.0339604
623.100	89.63	0.0340150
643.200	89.30	0.0340037
663.300	88.96	0.0339833
683.400	88.63	0.0339766
703.500	88.29	0.0339529
723.600	87.96	0.0339243
743.700	87.62	0.0339293
763.800	87.29	0.0339288
783.900	86.95	0.0339378
804.000	86.62	0.0338901
824.100	86.28	0.0339050
844.200	85.95	0.0338801
864.300	85.61	0.0338919
884.400	85.28	0.0338850
904.500	84.94	0.0338070
924.600	84.61	0.0338048
944.700	84.28	0.0338739
964.800	83.94	0.0338964
984.900	83.60	0.0338559
1005.00	83.27	0.0338147
1025.10	82.94	0.0338272
1045.20	82.60	0.0338501
1065.30	82.27	0.0338188
1085.40	81.93	0.0338179
1105.50	81.60	0.0338508
1125.60	81.26	0.0338579
1145.70	80.93	0.0338474
1165.80	80.59	0.0338278
1185.90	80.26	0.0338441
1206.00	79.92	0.0338764
1226.10	79.59	0.0338521
1246.20	79.25	0.0338534
1266.30	78.92	0.0338482
1286.40	78.58	0.0338349
1306.50	78.25	0.0338552
1326.60	77.91	0.0338715
1346.70	77.58	0.0338470
1366.80	77.24	0.0338876
1386.90	76.91	0.0338754
1407.00	76.57	0.0339226
1427.10	76.24	0.0338963
1447.20	75.90	0.0339164
1467.30	75.57	0.0339288
1487.40	75.23	0.0339117
1507.50	74.90	0.0339205
1527.60	74.56	0.0339699
1547.70	74.23	0.0340321
1567.80	73.89	0.0340059
1587.90	73.56	0.0340208
1608.00	73.22	0.0340534
1628.10	72.89	0.0341117
1648.20	72.55	0.0341442
1668.30	72.22	0.0341599
1688.40	71.88	0.0341882
1708.50	71.55	0.0342299
1728.60	71.21	0.0342681
1748.70	70.88	0.0343389
1768.80	70.54	0.0344134
1788.90	70.21	0.0344614
1809.00	69.87	0.0345465
1829.10	69.54	0.0346379
1849.20	69.20	0.0346632
1869.30	68.87	0.0348530
1889.40	68.54	0.0351703
1909.50	68.20	0.0355452
1929.60	67.87	0.0360979
1949.70	67.53	0.0372522
1969.80	67.20	0.0380815
1989.90	66.87	0.0385259
2010.00	66.53	0.0386866
2030.10	66.20	0.0387759
2050.20	65.86	0.0388034
2070.30	65.52	0.0387518
2090.40	65.19	0.0387519
2110.50	64.85	0.0387379
2130.60	64.52	0.0386683
2150.70	64.19	0.0386335
2170.80	63.85	0.0385992
2190.90	63.51	0.0385823
2211.00	63.18	0.0385973
2231.10	62.85	0.0385862
2251.20	62.51	0.0386429
2271.30	62.17	0.0386891
2291.40	61.84	0.0387355
2311.50	61.51	0.0389227
2331.60	61.17	0.0390916
2351.70	60.84	0.0392179
2371.80	60.50	0.0394866
2391.90	60.17	0.0398248
2412.00	59.83	0.0403471
2432.10	59.50	0.0411824
2452.20	59.17	0.0432878
2472.30	58.88	0.0965096
2492.40	58.51	0.0559640
2512.50	58.16	0.0481141
2532.60	57.83	0.0452099
2552.70	57.49	0.0439496
2572.80	57.16	0.0458161
2592.90	56.82	0.0425511
2613.00	56.48	0.0395833
2633.10	56.14	0.0377732
2653.20	55.81	0.0367524
2673.30	55.47	0.0359964
2693.40	55.14	0.0355145
2713.50	54.80	0.0350886
2733.60	54.47	0.0347480
2753.70	54.13	0.0344993
2773.80	53.80	0.0342731
2793.90	53.46	0.0340450
2814.00	53.13	0.0338436
2834.10	52.79	0.0336454
2854.20	52.46	0.0335039
2874.30	52.12	0.0333628
2894.40	51.79	0.0332130
2914.50	51.45	0.0330357
2934.60	51.12	0.0329278
2954.70	50.78	0.0328127
2974.80	50.45	0.0327016
2994.90	50.11	0.0326252
3015.00	49.78	0.0324897
3035.10	49.44	0.0323891
3055.20	49.11	0.0323447
3075.30	48.77	0.0322527
3095.40	48.44	0.0321905
3115.50	48.10	0.0320905
3135.60	47.77	0.0320184
3155.70	47.43	0.0320128
3175.80	47.10	0.0318693
3195.90	46.76	0.0317358
3216.00	46.43	0.0316122
3236.10	46.09	0.0315987
3256.20	45.75	0.0315965
3276.30	45.42	0.0314837
3296.40	45.08	0.0314593
3316.50	44.75	0.0313629
3336.60	44.41	0.0313132
3356.70	44.08	0.0312662
3376.80	43.75	0.0312078
3396.90	43.41	0.0311525
3417.00	43.08	0.0310651
3437.10	42.74	0.0309910
3457.20	42.41	0.0309797
3477.30	42.07	0.0309523
3497.40	41.73	0.0308375
3517.50	41.40	0.0308026
3537.60	41.07	0.0307514
3557.70	40.73	0.0307260
3577.80	40.39	0.0306844
3597.90	40.06	0.0306293
3618.00	39.72	0.0305349
3638.10	39.39	0.0304958
3658.20	39.05	0.0304804
3678.30	38.72	0.0304429
3698.40	38.38	0.0303741
3718.50	38.05	0.0303268
3738.60	37.71	0.0302942
3758.70	37.38	0.0302647
3778.80	37.05	0.0301614
3798.90	36.71	0.0301840
3819.00	36.37	0.0301351
3839.10	36.04	0.0300815
3859.20	35.70	0.0300597
3879.30	35.37	0.0299530
3899.40	35.03	0.0298958
3919.50	34.70	0.0298763
3939.60	34.36	0.0298802
3959.70	34.03	0.0298215
3979.80	33.70	0.0297259
3999.90	33.36	0.0296929
4020.00	33.03	0.0296597
4040.10	32.69	0.0296403
4060.20	32.35	0.0295759
4080.30	32.02	0.0295667
4100.40	31.68	0.0295333
4120.50	31.35	0.0295041
4140.60	31.02	0.0294237
4160.70	30.68	0.0293765
4180.80	30.34	0.0293592
4200.90	30.01	0.0293384
4221.00	29.68	0.0292626
4241.10	29.34	0.0292149
4261.20	29.00	0.0291717
4281.30	28.67	0.0291813
4301.40	28.33	0.0291663
4321.50	28.00	0.0290958
4341.60	27.66	0.0290714
4361.70	27.33	0.0290126
4381.80	26.99	0.0289879
4401.90	26.66	0.0289947
4422.00	26.32	0.0289264
4442.10	25.99	0.0288498
4462.20	25.65	0.0288267
4482.30	25.32	0.0288268
4502.40	25.00	0.0368178
4522.50	24.81	0.132404
4542.60	24.89	0.440498
4562.70	25.58	1.26066
4582.80	25.24	1.37779
4602.90	23.95	0.604620
4623.00	23.14	0.189870
4643.10	22.67	0.0588201
4663.20	22.32	0.0408583
4683.30	21.97	0.0283225
4703.40	21.63	0.0275707
4723.50	21.30	0.0262341
4743.60	20.96	0.0264839
4763.70	20.63	0.0260174
4783.80	20.29	0.0246322
4803.90	19.95	0.0232007
4824.00	19.62	0.0224774
4844.10	19.28	0.0224298
4864.20	18.95	0.0221653
4884.30	18.61	0.0219786
4904.40	18.28	0.0218319
4924.50	17.94	0.0217450
4944.60	17.61	0.0216726
4964.70	17.27	0.0215973
4984.80	16.94	0.0215773
5004.90	16.60	0.0215748
5025.00	16.27	0.0215141
5045.10	15.93	0.0214492
5065.20	15.60	0.0213472
5085.30	15.26	0.0212897
5105.40	14.93	0.0212059
5125.50	14.59	0.0211384
5145.60	14.26	0.0211651
5165.70	13.92	0.0211080
5185.80	13.59	0.0210025
5205.90	13.25	0.0209296
5226.00	12.92	0.0208702
5246.10	12.58	0.0208328
5266.20	12.25	0.0208075
5286.30	11.91	0.0207452
5306.40	11.58	0.0207296
5326.50	11.24	0.0206306
5346.60	10.91	0.0205465
5366.70	10.57	0.0204950
5386.80	10.24	0.0204252
5406.90	9.90	0.0203711
5427.00	9.57	0.0202651
5447.10	9.23	0.0202848
5467.20	8.90	0.0203085
5487.30	8.56	0.0202415
5507.40	8.23	0.0201275
5527.50	7.89	0.0200186
5547.60	7.56	0.0199663
5567.70	7.22	0.0199218
5587.80	6.88	0.0198790
5607.90	6.55	0.0198025
5628.00	6.22	0.0197317
5648.10	5.88	0.0197248
5668.20	5.55	0.0197157
5688.30	5.21	0.0196911
5708.40	4.88	0.0196456
5728.50	4.54	0.0195659
5748.60	4.21	0.0194759
5768.70	3.87	0.0194350
5788.80	3.54	0.0193449
5808.90	3.20	0.0193332
5829.00	2.87	0.0193206
5849.10	2.53	0.0193259
5869.20	2.19	0.0192911
5889.30	1.86	0.0192157
5909.40	1.53	0.0191909
5929.50	1.19	0.0191400
5949.60	0.86	0.0191164
5969.70	0.52	0.0190627
5989.80	0.19	0.0190530
6000.00	0.02	0.0190284