File: Differential scanning calorimetry/8OCB Squalane/8OCB SqA wt fraction 696.txt
Filename	8OCBSA696
Instrument name	DSC2A-00101 (192.168.10.4)
Operator	Yuma
rundate	5/30/2021
Sample name	8OCBSA696
proceduresegments	Data Off ; Equilibrate 150.00 °C; Isothermal 10.0 min; Equilibrate 100.00 °C; Isothermal 5.0 min; Data On ; Ramp 1.00 °C/min to 0.00 °C; Ramp 5.00 °C/min to 150.00 °C; Data Off ; Isothermal 10.0 min; Modulate Temperature 1.00 °C for 60.0 s; Equilibrate 100.00 °C; Isothermal 10.0 min; Data On ; Ramp 1.00 °C/min to 0.00 °C; Ramp 3.00 °C/min to 100.00 °C; Jump 30.00 °C
[step]
Ramp 1.00 °C/min to 0.00 °C
Time	Temperature	Heat Flow (Normalized)
s	°C	W/g
0.00000	99.84	2.63962e-3
20.1000	99.65	0.0210107
40.2000	99.32	0.0316787
60.3000	98.99	0.0341870
80.4000	98.66	0.0349207
100.500	98.32	0.0351651
120.600	97.99	0.0351495
140.700	97.65	0.0350723
160.800	97.32	0.0349931
180.900	96.98	0.0349578
201.000	96.65	0.0350093
221.100	96.31	0.0348742
241.200	95.98	0.0348181
261.300	95.64	0.0347566
281.400	95.31	0.0347178
301.500	94.97	0.0347398
321.600	94.64	0.0347256
341.700	94.30	0.0346838
361.800	93.97	0.0345327
381.900	93.63	0.0344598
402.000	93.30	0.0344530
422.100	92.96	0.0344200
442.200	92.63	0.0343996
462.300	92.29	0.0343243
482.400	91.96	0.0343501
502.500	91.62	0.0342700
522.600	91.29	0.0342032
542.700	90.95	0.0341334
562.800	90.62	0.0341160
582.900	90.28	0.0341224
603.000	89.95	0.0340262
623.100	89.61	0.0340428
643.200	89.28	0.0339598
663.300	88.94	0.0339526
683.400	88.61	0.0338619
703.500	88.27	0.0338303
723.600	87.94	0.0337578
743.700	87.60	0.0336417
763.800	87.27	0.0336367
783.900	86.93	0.0336072
804.000	86.60	0.0335776
824.100	86.26	0.0334695
844.200	85.93	0.0335033
864.300	85.59	0.0333686
884.400	85.26	0.0333422
904.500	84.92	0.0333003
924.600	84.59	0.0333152
944.700	84.25	0.0332850
964.800	83.92	0.0332342
984.900	83.58	0.0331693
1005.00	83.25	0.0330823
1025.10	82.91	0.0330806
1045.20	82.58	0.0330571
1065.30	82.24	0.0330036
1085.40	81.91	0.0329599
1105.50	81.57	0.0329572
1125.60	81.24	0.0328776
1145.70	80.90	0.0328398
1165.80	80.57	0.0328507
1185.90	80.23	0.0328069
1206.00	79.90	0.0327052
1226.10	79.56	0.0326264
1246.20	79.23	0.0326460
1266.30	78.89	0.0325884
1286.40	78.56	0.0325391
1306.50	78.22	0.0324711
1326.60	77.89	0.0324961
1346.70	77.55	0.0324483
1366.80	77.22	0.0323683
1386.90	76.88	0.0323066
1407.00	76.55	0.0323484
1427.10	76.21	0.0322830
1447.20	75.88	0.0322001
1467.30	75.54	0.0322255
1487.40	75.21	0.0321703
1507.50	74.87	0.0321567
1527.60	74.54	0.0321167
1547.70	74.20	0.0320242
1567.80	73.87	0.0320231
1587.90	73.53	0.0320097
1608.00	73.20	0.0319357
1628.10	72.86	0.0319208
1648.20	72.53	0.0319015
1668.30	72.19	0.0318155
1688.40	71.86	0.0318237
1708.50	71.52	0.0318045
1728.60	71.19	0.0317517
1748.70	70.85	0.0317462
1768.80	70.52	0.0317544
1788.90	70.18	0.0316272
1809.00	69.85	0.0315964
1829.10	69.52	0.0315657
1849.20	69.18	0.0315284
1869.30	68.85	0.0315228
1889.40	68.51	0.0314715
1909.50	68.17	0.0314925
1929.60	67.84	0.0314311
1949.70	67.51	0.0313168
1969.80	67.17	0.0313513
1989.90	66.83	0.0313383
2010.00	66.50	0.0313563
2030.10	66.16	0.0312922
2050.20	65.83	0.0312764
2070.30	65.49	0.0312676
2090.40	65.16	0.0312474
2110.50	64.82	0.0312011
2130.60	64.49	0.0312187
2150.70	64.16	0.0312444
2170.80	63.82	0.0312177
2190.90	63.48	0.0312135
2211.00	63.15	0.0312360
2231.10	62.81	0.0312945
2251.20	62.48	0.0312451
2271.30	62.15	0.0312569
2291.40	61.81	0.0313230
2311.50	61.48	0.0314723
2331.60	61.14	0.0319861
2351.70	60.81	0.0356733
2371.80	60.47	0.0370334
2391.90	60.14	0.0367993
2412.00	59.80	0.0366771
2432.10	59.47	0.0367596
2452.20	59.15	0.0679403
2472.30	58.80	0.0467169
2492.40	58.47	0.0427692
2512.50	58.13	0.0406691
2532.60	57.79	0.0398680
2552.70	57.46	0.0397476
2572.80	57.12	0.0381395
2592.90	56.79	0.0369745
2613.00	56.45	0.0361482
2633.10	56.12	0.0355721
2653.20	55.78	0.0351069
2673.30	55.45	0.0347725
2693.40	55.11	0.0343535
2713.50	54.78	0.0340193
2733.60	54.44	0.0336859
2753.70	54.11	0.0334703
2773.80	53.77	0.0331822
2793.90	53.44	0.0329478
2814.00	53.10	0.0327462
2834.10	52.77	0.0325953
2854.20	52.43	0.0323800
2874.30	52.10	0.0322011
2894.40	51.76	0.0320252
2914.50	51.43	0.0318324
2934.60	51.09	0.0316817
2954.70	50.76	0.0315619
2974.80	50.42	0.0313467
2994.90	50.09	0.0313356
3015.00	49.75	0.0312088
3035.10	49.42	0.0309704
3055.20	49.08	0.0309384
3075.30	48.75	0.0308353
3095.40	48.41	0.0306734
3115.50	48.08	0.0304852
3135.60	47.74	0.0303465
3155.70	47.41	0.0303550
3175.80	47.07	0.0302743
3195.90	46.74	0.0300326
3216.00	46.40	0.0298930
3236.10	46.07	0.0298312
3256.20	45.73	0.0298334
3276.30	45.40	0.0297189
3296.40	45.06	0.0295540
3316.50	44.73	0.0294871
3336.60	44.39	0.0294332
3356.70	44.06	0.0293478
3376.80	43.72	0.0292321
3396.90	43.39	0.0291435
3417.00	43.05	0.0290602
3437.10	42.72	0.0289748
3457.20	42.38	0.0289000
3477.30	42.05	0.0288406
3497.40	41.71	0.0287494
3517.50	41.38	0.0286442
3537.60	41.04	0.0285138
3557.70	40.71	0.0284235
3577.80	40.37	0.0283891
3597.90	40.04	0.0283007
3618.00	39.70	0.0281811
3638.10	39.37	0.0280943
3658.20	39.03	0.0279999
3678.30	38.70	0.0279513
3698.40	38.36	0.0279043
3718.50	38.03	0.0277783
3738.60	37.69	0.0277058
3758.70	37.35	0.0276684
3778.80	37.02	0.0275783
3798.90	36.68	0.0275358
3819.00	36.35	0.0274568
3839.10	36.02	0.0274216
3859.20	35.68	0.0273837
3879.30	35.35	0.0272774
3899.40	35.01	0.0271963
3919.50	34.68	0.0271634
3939.60	34.34	0.0270773
3959.70	34.01	0.0270126
3979.80	33.67	0.0269279
3999.90	33.34	0.0268872
4020.00	33.00	0.0268420
4040.10	32.67	0.0267813
4060.20	32.33	0.0266928
4080.30	32.00	0.0266239
4100.40	31.66	0.0264834
4120.50	31.33	0.0263726
4140.60	30.99	0.0263126
4160.70	30.66	0.0262141
4180.80	30.32	0.0261527
4200.90	29.99	0.0261238
4221.00	29.65	0.0260968
4241.10	29.32	0.0260784
4261.20	28.98	0.0260269
4281.30	28.65	0.0259022
4301.40	28.31	0.0257680
4321.50	27.98	0.0257149
4341.60	27.64	0.0256427
4361.70	27.31	0.0255946
4381.80	26.97	0.0255616
4401.90	26.64	0.0255232
4422.00	26.30	0.0254568
4442.10	25.97	0.0253948
4462.20	25.63	0.0253677
4482.30	25.30	0.0252307
4502.40	24.96	0.0252385
4522.50	24.63	0.0251686
4542.60	24.29	0.0251146
4562.70	23.96	0.0250690
4582.80	23.62	0.0250062
4602.90	23.29	0.0249471
4623.00	22.95	0.0248821
4643.10	22.62	0.0248266
4663.20	22.28	0.0251369
4683.30	21.97	0.0600100
4703.40	21.77	0.330409
4723.50	21.45	0.363135
4743.60	21.15	0.407406
4763.70	20.68	0.200616
4783.80	20.28	0.0405796
4803.90	19.94	0.0307102
4824.00	19.60	0.0276606
4844.10	19.27	0.0263193
4864.20	18.93	0.0256437
4884.30	18.60	0.0252454
4904.40	18.26	0.0248990
4924.50	17.93	0.0246485
4944.60	17.59	0.0244136
4964.70	17.26	0.0241858
4984.80	16.92	0.0240044
5004.90	16.59	0.0237893
5025.00	16.25	0.0236411
5045.10	15.92	0.0234125
5065.20	15.58	0.0232157
5085.30	15.24	0.0230319
5105.40	14.91	0.0227629
5125.50	14.57	0.0225780
5145.60	14.24	0.0223567
5165.70	13.90	0.0221430
5185.80	13.57	0.0219680
5205.90	13.23	0.0217818
5226.00	12.90	0.0215983
5246.10	12.56	0.0215149
5266.20	12.23	0.0213502
5286.30	11.89	0.0212710
5306.40	11.56	0.0210623
5326.50	11.22	0.0209828
5346.60	10.89	0.0208650
5366.70	10.55	0.0206671
5386.80	10.22	0.0204933
5406.90	9.88	0.0204240
5427.00	9.55	0.0202703
5447.10	9.21	0.0202025
5467.20	8.88	0.0201044
5487.30	8.54	0.0200119
5507.40	8.21	0.0199056
5527.50	7.87	0.0198021
5547.60	7.54	0.0197371
5567.70	7.20	0.0196272
5587.80	6.87	0.0195374
5607.90	6.53	0.0194846
5628.00	6.20	0.0193629
5648.10	5.86	0.0192819
5668.20	5.53	0.0192312
5688.30	5.19	0.0192018
5708.40	4.86	0.0190975
5728.50	4.52	0.0189866
5748.60	4.19	0.0189008
5768.70	3.86	0.0188600
5788.80	3.52	0.0187863
5808.90	3.18	0.0187971
5829.00	2.85	0.0187916
5849.10	2.51	0.0187329
5869.20	2.18	0.0186262
5889.30	1.84	0.0184967
5909.40	1.51	0.0185235
5929.50	1.17	0.0185751
5949.60	0.84	0.0185359
5969.70	0.50	0.0184698
5989.80	0.17	0.0183267
6000.00	0.00	0.0182903