File: Differential scanning calorimetry/8OCB Squalane/8OCB SqA  wt fraction  000.txt
Filename	8OCBSA000
Instrument name	DSC2A-00101 (192.168.10.4)
Operator	Yuma
rundate	5/27/2021
Sample name	8OCBSA000
proceduresegments	Data Off ; Equilibrate 150.00 °C; Isothermal 10.0 min; Equilibrate 100.00 °C; Isothermal 5.0 min; Data On ; Ramp 1.00 °C/min to 0.00 °C; Ramp 5.00 °C/min to 150.00 °C; Data Off ; Isothermal 10.0 min; Modulate Temperature 1.00 °C for 60.0 s; Equilibrate 100.00 °C; Isothermal 10.0 min; Data On ; Ramp 1.00 °C/min to 0.00 °C; Ramp 3.00 °C/min to 100.00 °C; Jump 30.00 °C
[step]
Ramp 1.00 °C/min to 0.00 °C
Time	Temperature	Heat Flow (Normalized)
s	°C	W/g
0.00000	99.84	1.42665e-3
20.1000	99.65	0.0142394
40.2000	99.32	0.0243846
60.3000	98.99	0.0273618
80.4000	98.65	0.0281107
100.500	98.31	0.0283361
120.600	97.98	0.0281728
140.700	97.65	0.0282564
160.800	97.31	0.0282408
180.900	96.98	0.0281729
201.000	96.64	0.0280831
221.100	96.31	0.0280270
241.200	95.97	0.0281461
261.300	95.64	0.0280635
281.400	95.30	0.0279999
301.500	94.97	0.0279852
321.600	94.63	0.0278314
341.700	94.30	0.0278558
361.800	93.96	0.0277964
381.900	93.63	0.0277144
402.000	93.29	0.0277221
422.100	92.96	0.0277256
442.200	92.62	0.0276957
462.300	92.29	0.0276844
482.400	91.95	0.0276998
502.500	91.62	0.0276226
522.600	91.28	0.0275698
542.700	90.95	0.0275306
562.800	90.61	0.0275587
582.900	90.28	0.0275394
603.000	89.94	0.0276234
623.100	89.61	0.0275006
643.200	89.27	0.0274326
663.300	88.94	0.0274984
683.400	88.60	0.0274237
703.500	88.27	0.0273977
723.600	87.93	0.0273286
743.700	87.60	0.0273708
763.800	87.26	0.0273779
783.900	86.93	0.0272758
804.000	86.59	0.0272246
824.100	86.26	0.0272121
844.200	85.92	0.0272532
864.300	85.59	0.0272671
884.400	85.25	0.0272764
904.500	84.92	0.0273262
924.600	84.58	0.0273290
944.700	84.25	0.0273718
964.800	83.91	0.0273497
984.900	83.58	0.0273162
1005.00	83.24	0.0273577
1025.10	82.91	0.0273417
1045.20	82.57	0.0275413
1065.30	82.24	0.0276220
1085.40	81.90	0.0276710
1105.50	81.57	0.0278290
1125.60	81.23	0.0279665
1145.70	80.90	0.0281349
1165.80	80.56	0.0283852
1185.90	80.23	0.0286940
1206.00	79.90	0.0292149
1226.10	79.56	0.0302742
1246.20	79.26	0.145335
1266.30	78.89	0.0500222
1286.40	78.56	0.0419239
1306.50	78.22	0.0377402
1326.60	77.89	0.0353786
1346.70	77.55	0.0339185
1366.80	77.22	0.0329162
1386.90	76.88	0.0321196
1407.00	76.54	0.0314644
1427.10	76.21	0.0309318
1447.20	75.87	0.0304648
1467.30	75.54	0.0300970
1487.40	75.21	0.0297448
1507.50	74.87	0.0293868
1527.60	74.54	0.0291436
1547.70	74.20	0.0288804
1567.80	73.87	0.0286667
1587.90	73.53	0.0283895
1608.00	73.20	0.0282228
1628.10	72.86	0.0280184
1648.20	72.52	0.0278218
1668.30	72.19	0.0276200
1688.40	71.85	0.0274329
1708.50	71.52	0.0272054
1728.60	71.18	0.0270067
1748.70	70.85	0.0269231
1768.80	70.52	0.0268103
1788.90	70.18	0.0266881
1809.00	69.84	0.0265259
1829.10	69.51	0.0264548
1849.20	69.17	0.0262913
1869.30	68.84	0.0261530
1889.40	68.50	0.0261149
1909.50	68.17	0.0259969
1929.60	67.83	0.0259440
1949.70	67.50	0.0258739
1969.80	67.17	0.0258824
1989.90	66.83	0.0259467
2010.00	66.50	0.0261479
2030.10	66.16	0.0268585
2050.20	65.82	0.0275023
2070.30	65.49	0.0263966
2090.40	65.15	0.0257636
2110.50	64.82	0.0252845
2130.60	64.48	0.0249043
2150.70	64.15	0.0245794
2170.80	63.81	0.0242807
2190.90	63.48	0.0240770
2211.00	63.14	0.0239204
2231.10	62.81	0.0238001
2251.20	62.47	0.0236250
2271.30	62.14	0.0234283
2291.40	61.80	0.0232434
2311.50	61.47	0.0231534
2331.60	61.13	0.0231029
2351.70	60.80	0.0229508
2371.80	60.47	0.0228057
2391.90	60.13	0.0227741
2412.00	59.79	0.0226364
2432.10	59.46	0.0225346
2452.20	59.12	0.0223903
2472.30	58.79	0.0223250
2492.40	58.45	0.0221868
2512.50	58.12	0.0220867
2532.60	57.78	0.0219464
2552.70	57.45	0.0218475
2572.80	57.11	0.0217306
2592.90	56.78	0.0216653
2613.00	56.44	0.0215646
2633.10	56.11	0.0214832
2653.20	55.77	0.0213963
2673.30	55.44	0.0213473
2693.40	55.10	0.0212049
2713.50	54.77	0.0210936
2733.60	54.43	0.0210169
2753.70	54.10	0.0209280
2773.80	53.76	0.0208126
2793.90	53.43	0.0207381
2814.00	53.10	0.0206736
2834.10	52.76	0.0205994
2854.20	52.42	0.0205697
2874.30	52.09	0.0204851
2894.40	51.75	0.0203763
2914.50	51.42	0.0202097
2934.60	51.08	0.0201522
2954.70	50.75	0.0200923
2974.80	50.42	0.0200444
2994.90	50.08	0.0199245
3015.00	49.74	0.0198491
3035.10	49.41	0.0197606
3055.20	49.07	0.0197136
3075.30	48.74	0.0196263
3095.40	48.41	0.0195672
3115.50	48.07	0.0194729
3135.60	47.74	0.0193904
3155.70	47.40	0.0193686
3175.80	47.06	0.0193185
3195.90	46.73	0.0191508
3216.00	46.40	0.0190654
3236.10	46.06	0.0190400
3256.20	45.72	0.0190293
3276.30	45.39	0.0189040
3296.40	45.05	0.0188225
3316.50	44.72	0.0187626
3336.60	44.38	0.0187286
3356.70	44.05	0.0186800
3376.80	43.72	0.0185433
3396.90	43.38	0.0184801
3417.00	43.04	0.0184693
3437.10	42.71	0.0184149
3457.20	42.37	0.0183391
3477.30	42.04	0.0182719
3497.40	41.71	0.0181336
3517.50	41.37	0.0180790
3537.60	41.03	0.0180374
3557.70	40.70	0.0179206
3577.80	40.36	0.0179177
3597.90	40.03	0.0178491
3618.00	39.69	0.0177594
3638.10	39.36	0.0176924
3658.20	39.02	0.0176040
3678.30	38.69	0.0175890
3698.40	38.35	0.0175231
3718.50	38.02	0.0174264
3738.60	37.69	0.0173596
3758.70	37.35	0.0173303
3778.80	37.01	0.0172346
3798.90	36.68	0.0171796
3819.00	36.35	0.0171187
3839.10	36.01	0.0169924
3859.20	35.67	0.0169379
3879.30	35.34	0.0169794
3899.40	35.00	0.0168188
3919.50	34.67	0.0167652
3939.60	34.34	0.0166920
3959.70	34.00	0.0166491
3979.80	33.66	0.0165946
3999.90	33.33	0.0164594
4020.00	32.99	0.0164922
4040.10	32.66	0.0164346
4060.20	32.32	0.0163121
4080.30	31.99	0.0162722
4100.40	31.66	0.0162232
4120.50	31.32	0.0161830
4140.60	30.98	0.0160902
4160.70	30.65	0.0160359
4180.80	30.31	0.0159224
4200.90	29.98	0.0158803
4221.00	29.64	0.0157799
4241.10	29.31	0.0157361
4261.20	28.97	0.0156472
4281.30	28.64	0.0155489
4301.40	28.31	0.0155283
4321.50	27.97	0.0155176
4341.60	27.63	0.0154379
4361.70	27.30	0.0153926
4381.80	26.97	0.0155522
4401.90	27.07	1.19994
4422.00	26.71	1.12335
4442.10	26.53	1.89512
4462.20	25.65	0.0988913
4482.30	25.29	0.0233443
4502.40	24.95	0.0183166
4522.50	24.62	0.0159849
4542.60	24.28	0.0150962
4562.70	23.95	0.0147242
4582.80	23.61	0.0145752
4602.90	23.28	0.0144551
4623.00	22.94	0.0144882
4643.10	22.61	0.0144013
4663.20	22.27	0.0143704
4683.30	21.94	0.0143109
4703.40	21.61	0.0142157
4723.50	21.27	0.0141328
4743.60	20.93	0.0140579
4763.70	20.60	0.0139427
4783.80	20.26	0.0137980
4803.90	19.93	0.0135760
4824.00	19.59	0.0133690
4844.10	19.26	0.0131917
4864.20	18.92	0.0129312
4884.30	18.59	0.0126997
4904.40	18.25	0.0124388
4924.50	17.92	0.0121641
4944.60	17.59	0.0119257
4964.70	17.25	0.0117318
4984.80	16.91	0.0114942
5004.90	16.58	0.0112160
5025.00	16.24	0.0109584
5045.10	15.91	0.0106783
5065.20	15.57	0.0104210
5085.30	15.24	0.0101345
5105.40	14.90	9.85018e-3
5125.50	14.57	9.65313e-3
5145.60	14.23	9.41547e-3
5165.70	13.90	9.17517e-3
5185.80	13.56	8.89293e-3
5205.90	13.23	8.66891e-3
5226.00	12.89	8.40357e-3
5246.10	12.56	8.17603e-3
5266.20	12.22	7.97662e-3
5286.30	11.89	7.83915e-3
5306.40	11.55	7.66189e-3
5326.50	11.22	7.45570e-3
5346.60	10.88	7.16088e-3
5366.70	10.55	6.94423e-3
5386.80	10.21	6.72112e-3
5406.90	9.88	6.48521e-3
5427.00	9.54	6.36451e-3
5447.10	9.21	6.21006e-3
5467.20	8.87	6.07233e-3
5487.30	8.54	5.85262e-3
5507.40	8.20	5.69458e-3
5527.50	7.87	5.57280e-3
5547.60	7.53	5.49547e-3
5567.70	7.20	5.36070e-3
5587.80	6.86	5.15856e-3
5607.90	6.53	4.98276e-3
5628.00	6.19	4.85967e-3
5648.10	5.86	4.72346e-3
5668.20	5.52	4.58527e-3
5688.30	5.19	4.51832e-3
5708.40	4.85	4.38713e-3
5728.50	4.52	4.29671e-3
5748.60	4.18	4.24000e-3
5768.70	3.85	4.08198e-3
5788.80	3.51	3.99147e-3
5808.90	3.18	3.96951e-3
5829.00	2.84	3.86802e-3
5849.10	2.51	3.72319e-3
5869.20	2.17	3.61425e-3
5889.30	1.84	3.55484e-3
5909.40	1.50	3.47348e-3
5929.50	1.17	3.41004e-3
5949.60	0.83	3.41431e-3
5969.70	0.50	3.28293e-3
5989.80	0.16	3.17032e-3
6000.00	-0.01	3.12384e-3