File: Differential scanning calorimetry/8OCB Squalane/8OCB SqA wt fraction 133.txt
Filename	8OCBSA133
Instrument name	DSC2A-00101 (192.168.10.4)
Operator	Yuma
rundate	5/28/2021
Sample name	8OCBSA133
proceduresegments	Data Off ; Equilibrate 150.00 °C; Isothermal 10.0 min; Equilibrate 100.00 °C; Isothermal 5.0 min; Data On ; Ramp 1.00 °C/min to 0.00 °C; Ramp 5.00 °C/min to 150.00 °C; Data Off ; Isothermal 10.0 min; Modulate Temperature 1.00 °C for 60.0 s; Equilibrate 100.00 °C; Isothermal 10.0 min; Data On ; Ramp 1.00 °C/min to 0.00 °C; Ramp 3.00 °C/min to 100.00 °C; Jump 30.00 °C
[step]
Ramp 1.00 °C/min to 0.00 °C
Time	Temperature	Heat Flow (Normalized)
s	°C	W/g
0.00000	99.84	6.47741e-3
20.0000	99.64	0.0218517
40.0000	99.32	0.0322173
60.0000	98.99	0.0344327
80.0000	98.66	0.0351196
100.000	98.32	0.0353173
120.000	97.99	0.0353964
140.000	97.66	0.0353086
160.000	97.33	0.0352019
180.000	96.99	0.0352857
200.000	96.66	0.0352992
220.000	96.32	0.0352751
240.000	95.99	0.0351076
260.000	95.66	0.0351099
280.000	95.32	0.0350796
300.000	94.99	0.0350876
320.000	94.66	0.0349474
340.000	94.32	0.0349681
360.000	93.99	0.0349685
380.000	93.66	0.0349559
400.000	93.33	0.0349225
420.000	92.99	0.0348554
440.000	92.66	0.0348081
460.000	92.32	0.0348328
480.000	91.99	0.0347247
500.000	91.66	0.0346378
520.000	91.33	0.0346889
540.000	90.99	0.0347001
560.000	90.66	0.0347156
580.000	90.33	0.0345761
600.000	89.99	0.0345442
620.000	89.66	0.0345074
640.000	89.33	0.0344615
660.000	88.99	0.0344085
680.000	88.66	0.0344829
700.000	88.33	0.0344879
720.000	87.99	0.0344236
740.000	87.66	0.0343849
760.000	87.33	0.0343388
780.000	86.99	0.0343774
800.000	86.66	0.0343643
820.000	86.33	0.0343240
840.000	85.99	0.0341831
860.000	85.66	0.0341989
880.000	85.33	0.0341595
900.000	84.99	0.0341395
920.000	84.66	0.0341366
940.000	84.33	0.0340689
960.000	83.99	0.0340139
980.000	83.66	0.0340442
1000.00	83.33	0.0340698
1020.00	82.99	0.0339776
1040.00	82.66	0.0340171
1060.00	82.33	0.0339178
1080.00	81.99	0.0338807
1100.00	81.66	0.0339599
1120.00	81.33	0.0339566
1140.00	80.99	0.0338994
1160.00	80.66	0.0338342
1180.00	80.33	0.0338077
1200.00	80.00	0.0338435
1220.00	79.66	0.0338235
1240.00	79.33	0.0338552
1260.00	78.99	0.0338595
1280.00	78.66	0.0338319
1300.00	78.33	0.0337937
1320.00	77.99	0.0338104
1340.00	77.66	0.0337585
1360.00	77.33	0.0337713
1380.00	76.99	0.0338101
1400.00	76.66	0.0337678
1420.00	76.33	0.0337715
1440.00	76.00	0.0337765
1460.00	75.66	0.0337379
1480.00	75.33	0.0337421
1500.00	74.99	0.0337127
1520.00	74.66	0.0337843
1540.00	74.33	0.0337574
1560.00	74.00	0.0337336
1580.00	73.66	0.0338061
1600.00	73.33	0.0337688
1620.00	73.00	0.0338499
1640.00	72.66	0.0338538
1660.00	72.33	0.0338623
1680.00	72.00	0.0339048
1700.00	71.66	0.0338417
1720.00	71.33	0.0339124
1740.00	71.00	0.0339295
1760.00	70.66	0.0339550
1780.00	70.33	0.0339000
1800.00	70.00	0.0339713
1820.00	69.66	0.0339792
1840.00	69.33	0.0340566
1860.00	69.00	0.0340732
1880.00	68.66	0.0341148
1900.00	68.33	0.0341544
1920.00	68.00	0.0342168
1940.00	67.66	0.0343694
1960.00	67.33	0.0345196
1980.00	67.00	0.0345610
2000.00	66.66	0.0346044
2020.00	66.33	0.0347487
2040.00	66.00	0.0348063
2060.00	65.66	0.0350390
2080.00	65.33	0.0352825
2100.00	65.00	0.0355015
2120.00	64.67	0.0358466
2140.00	64.33	0.0363194
2160.00	64.00	0.0370186
2180.00	63.67	0.0445753
2200.00	63.34	0.0486503
2220.00	63.00	0.0483091
2240.00	62.67	0.0472398
2260.00	62.34	0.0457723
2280.00	62.00	0.0448147
2300.00	61.67	0.0445043
2320.00	61.34	0.0436375
2340.00	61.00	0.0428194
2360.00	60.67	0.0421703
2380.00	60.34	0.0415807
2400.00	60.00	0.0414762
2420.00	59.67	0.0414250
2440.00	59.34	0.0541566
2460.00	59.01	0.0462606
2480.00	58.67	0.0490982
2500.00	58.34	0.0475474
2520.00	58.00	0.0455022
2540.00	57.67	0.0479022
2560.00	57.34	0.0453025
2580.00	57.00	0.0401670
2600.00	56.67	0.0373977
2620.00	56.33	0.0358564
2640.00	56.00	0.0349943
2660.00	55.67	0.0343706
2680.00	55.33	0.0339291
2700.00	55.00	0.0335522
2720.00	54.67	0.0332329
2740.00	54.33	0.0329637
2760.00	54.00	0.0326496
2780.00	53.67	0.0324571
2800.00	53.33	0.0322314
2820.00	53.00	0.0320335
2840.00	52.67	0.0319647
2860.00	52.33	0.0318187
2880.00	52.00	0.0316320
2900.00	51.67	0.0315387
2920.00	51.33	0.0313749
2940.00	51.00	0.0312839
2960.00	50.67	0.0311154
2980.00	50.33	0.0309945
3000.00	50.00	0.0308822
3020.00	49.67	0.0307873
3040.00	49.33	0.0307213
3060.00	49.00	0.0305608
3080.00	48.66	0.0305029
3100.00	48.33	0.0304296
3120.00	48.00	0.0303483
3140.00	47.67	0.0302864
3160.00	47.33	0.0303314
3180.00	47.00	0.0300790
3200.00	46.67	0.0299505
3220.00	46.33	0.0298299
3240.00	46.00	0.0297868
3260.00	45.67	0.0296624
3280.00	45.33	0.0296318
3300.00	45.00	0.0295504
3320.00	44.67	0.0294856
3340.00	44.33	0.0293899
3360.00	44.00	0.0293172
3380.00	43.67	0.0293037
3400.00	43.33	0.0292176
3420.00	43.00	0.0291528
3440.00	42.67	0.0290907
3460.00	42.33	0.0289963
3480.00	42.00	0.0289127
3500.00	41.67	0.0288165
3520.00	41.33	0.0287713
3540.00	41.00	0.0286824
3560.00	40.67	0.0285901
3580.00	40.33	0.0285754
3600.00	40.00	0.0284894
3620.00	39.67	0.0283916
3640.00	39.33	0.0283643
3660.00	39.00	0.0282864
3680.00	38.67	0.0282138
3700.00	38.33	0.0281479
3720.00	38.00	0.0281037
3740.00	37.66	0.0281133
3760.00	37.33	0.0280568
3780.00	37.00	0.0279718
3800.00	36.67	0.0278669
3820.00	36.33	0.0278207
3840.00	36.00	0.0277529
3860.00	35.67	0.0276796
3880.00	35.33	0.0276184
3900.00	35.00	0.0276044
3920.00	34.67	0.0275169
3940.00	34.33	0.0274502
3960.00	34.00	0.0274202
3980.00	33.67	0.0273400
4000.00	33.33	0.0272922
4020.00	33.00	0.0272361
4040.00	32.67	0.0271255
4060.00	32.33	0.0270660
4080.00	32.00	0.0270079
4100.00	31.67	0.0269866
4120.00	31.33	0.0269570
4140.00	31.00	0.0268696
4160.00	30.67	0.0268485
4180.00	30.33	0.0268822
4200.00	30.00	0.0272735
4220.00	29.83	0.192412
4240.00	29.78	0.900302
4260.00	29.48	0.918609
4280.00	29.24	1.30925
4300.00	28.36	0.103900
4320.00	28.00	0.0319697
4340.00	27.67	0.0272350
4360.00	27.33	0.0250514
4380.00	27.00	0.0240791
4400.00	26.66	0.0234746
4420.00	26.33	0.0229947
4440.00	26.00	0.0227029
4460.00	25.67	0.0224645
4480.00	25.33	0.0222663
4500.00	25.00	0.0221255
4520.00	24.66	0.0218730
4540.00	24.33	0.0216555
4560.00	24.00	0.0215219
4580.00	23.66	0.0213946
4600.00	23.33	0.0212799
4620.00	23.00	0.0211360
4640.00	22.66	0.0210220
4660.00	22.33	0.0209253
4680.00	22.00	0.0208105
4700.00	21.66	0.0207168
4720.00	21.33	0.0206000
4740.00	21.00	0.0204474
4760.00	20.66	0.0203800
4780.00	20.33	0.0203032
4800.00	20.00	0.0202092
4820.00	19.66	0.0201150
4840.00	19.33	0.0200810
4860.00	19.00	0.0199808
4880.00	18.66	0.0198799
4900.00	18.33	0.0197513
4920.00	18.00	0.0196964
4940.00	17.66	0.0196085
4960.00	17.33	0.0194904
4980.00	17.00	0.0194080
5000.00	16.66	0.0193332
5020.00	16.33	0.0192282
5040.00	16.00	0.0191664
5060.00	15.66	0.0190810
5080.00	15.33	0.0189595
5100.00	15.00	0.0188870
5120.00	14.66	0.0187755
5140.00	14.33	0.0186560
5160.00	14.00	0.0186263
5180.00	13.66	0.0185852
5200.00	13.33	0.0185174
5220.00	13.00	0.0184228
5240.00	12.66	0.0183018
5260.00	12.33	0.0182478
5280.00	12.00	0.0181408
5300.00	11.66	0.0180783
5320.00	11.33	0.0179702
5340.00	11.00	0.0178827
5360.00	10.66	0.0178325
5380.00	10.33	0.0177967
5400.00	10.00	0.0176447
5420.00	9.66	0.0176283
5440.00	9.33	0.0175270
5460.00	9.00	0.0173832
5480.00	8.66	0.0172605
5500.00	8.33	0.0171789
5520.00	8.00	0.0171432
5540.00	7.66	0.0170536
5560.00	7.33	0.0169570
5580.00	7.00	0.0168484
5600.00	6.66	0.0168040
5620.00	6.33	0.0167505
5640.00	6.00	0.0167237
5660.00	5.66	0.0166356
5680.00	5.33	0.0165759
5700.00	5.00	0.0164857
5720.00	4.66	0.0164082
5740.00	4.33	0.0163284
5760.00	4.00	0.0162915
5780.00	3.67	0.0162136
5800.00	3.33	0.0161454
5820.00	3.00	0.0161334
5840.00	2.66	0.0160771
5860.00	2.33	0.0160403
5880.00	2.00	0.0159622
5900.00	1.66	0.0159524
5920.00	1.33	0.0158702
5940.00	1.00	0.0158458
5960.00	0.66	0.0157261
5980.00	0.33	0.0157535
5999.90	0.00	0.0157701