File: Differential scanning calorimetry/8OCB Squalane/8OCB SqA wt fraction 183.txt
Filename	8OCBSA183
Instrument name	DSC2A-00101 (192.168.10.4)
Operator	Yuma
rundate	5/30/2021
Sample name	8OCBSA183
proceduresegments	Data Off ; Equilibrate 150.00 °C; Isothermal 10.0 min; Equilibrate 100.00 °C; Isothermal 5.0 min; Data On ; Ramp 1.00 °C/min to 0.00 °C; Ramp 5.00 °C/min to 150.00 °C; Data Off ; Isothermal 10.0 min; Modulate Temperature 1.00 °C for 60.0 s; Equilibrate 100.00 °C; Isothermal 10.0 min; Data On ; Ramp 1.00 °C/min to 0.00 °C; Ramp 3.00 °C/min to 100.00 °C; Jump 30.00 °C
[step]
Ramp 1.00 °C/min to 0.00 °C
Time	Temperature	Heat Flow (Normalized)
s	°C	W/g
0.00000	99.84	9.87072e-4
20.1000	99.65	0.0185525
40.2000	99.32	0.0290730
60.3000	98.99	0.0315178
80.4000	98.65	0.0322521
100.500	98.32	0.0324084
120.600	97.98	0.0324919
140.700	97.65	0.0324350
160.800	97.31	0.0324650
180.900	96.98	0.0324734
201.000	96.64	0.0323947
221.100	96.31	0.0323636
241.200	95.97	0.0323150
261.300	95.64	0.0323227
281.400	95.31	0.0322910
301.500	94.97	0.0322976
321.600	94.63	0.0322695
341.700	94.30	0.0322637
361.800	93.97	0.0321715
381.900	93.63	0.0321125
402.000	93.29	0.0321095
422.100	92.96	0.0320904
442.200	92.63	0.0320736
462.300	92.29	0.0320191
482.400	91.96	0.0320176
502.500	91.62	0.0319473
522.600	91.29	0.0319557
542.700	90.95	0.0319733
562.800	90.62	0.0319584
582.900	90.28	0.0318756
603.000	89.95	0.0319228
623.100	89.61	0.0319155
643.200	89.28	0.0318788
663.300	88.94	0.0318449
683.400	88.61	0.0318090
703.500	88.27	0.0317228
723.600	87.94	0.0316867
743.700	87.60	0.0316520
763.800	87.27	0.0316697
783.900	86.93	0.0317015
804.000	86.60	0.0316166
824.100	86.26	0.0316290
844.200	85.93	0.0315392
864.300	85.59	0.0316082
884.400	85.26	0.0315591
904.500	84.92	0.0315101
924.600	84.59	0.0315090
944.700	84.25	0.0314838
964.800	83.92	0.0313524
984.900	83.58	0.0314058
1005.00	83.25	0.0313636
1025.10	82.91	0.0313855
1045.20	82.58	0.0314107
1065.30	82.24	0.0313378
1085.40	81.91	0.0313206
1105.50	81.57	0.0313796
1125.60	81.24	0.0313731
1145.70	80.90	0.0313244
1165.80	80.57	0.0312709
1185.90	80.23	0.0313223
1206.00	79.90	0.0313689
1226.10	79.56	0.0313516
1246.20	79.23	0.0312190
1266.30	78.89	0.0312160
1286.40	78.56	0.0311967
1306.50	78.22	0.0311518
1326.60	77.89	0.0311803
1346.70	77.55	0.0311761
1366.80	77.22	0.0311331
1386.90	76.88	0.0311381
1407.00	76.55	0.0311620
1427.10	76.21	0.0311327
1447.20	75.88	0.0311815
1467.30	75.54	0.0311525
1487.40	75.21	0.0311308
1507.50	74.87	0.0311971
1527.60	74.54	0.0311973
1547.70	74.20	0.0311698
1567.80	73.87	0.0311433
1587.90	73.53	0.0311397
1608.00	73.20	0.0311747
1628.10	72.86	0.0312268
1648.20	72.53	0.0311634
1668.30	72.19	0.0311057
1688.40	71.86	0.0312266
1708.50	71.52	0.0312302
1728.60	71.19	0.0311576
1748.70	70.85	0.0312398
1768.80	70.52	0.0312272
1788.90	70.18	0.0311956
1809.00	69.85	0.0312218
1829.10	69.51	0.0313069
1849.20	69.18	0.0313117
1869.30	68.85	0.0313739
1889.40	68.51	0.0313503
1909.50	68.17	0.0314257
1929.60	67.84	0.0314744
1949.70	67.51	0.0314960
1969.80	67.17	0.0314403
1989.90	66.83	0.0315813
2010.00	66.50	0.0316291
2030.10	66.16	0.0317217
2050.20	65.83	0.0317814
2070.30	65.49	0.0318275
2090.40	65.16	0.0319418
2110.50	64.83	0.0319819
2130.60	64.49	0.0320783
2150.70	64.16	0.0321667
2170.80	63.82	0.0323084
2190.90	63.49	0.0324437
2211.00	63.15	0.0325947
2231.10	62.82	0.0327869
2251.20	62.48	0.0329738
2271.30	62.15	0.0331943
2291.40	61.81	0.0334386
2311.50	61.48	0.0336109
2331.60	61.14	0.0340303
2351.70	60.81	0.0344196
2371.80	60.47	0.0349531
2391.90	60.14	0.0360305
2412.00	59.82	0.0604562
2432.10	59.52	0.115209
2452.20	59.16	0.0910261
2472.30	58.81	0.0589726
2492.40	58.47	0.0473769
2512.50	58.13	0.0437760
2532.60	57.80	0.0430725
2552.70	57.46	0.0449956
2572.80	57.12	0.0399425
2592.90	56.79	0.0363667
2613.00	56.45	0.0344690
2633.10	56.12	0.0334347
2653.20	55.78	0.0328270
2673.30	55.45	0.0323128
2693.40	55.11	0.0319105
2713.50	54.78	0.0316259
2733.60	54.44	0.0313270
2753.70	54.11	0.0310887
2773.80	53.77	0.0309308
2793.90	53.44	0.0306283
2814.00	53.10	0.0304796
2834.10	52.77	0.0302956
2854.20	52.43	0.0301792
2874.30	52.10	0.0300395
2894.40	51.76	0.0299024
2914.50	51.43	0.0297520
2934.60	51.09	0.0296657
2954.70	50.76	0.0294889
2974.80	50.42	0.0293752
2994.90	50.09	0.0292247
3015.00	49.75	0.0291004
3035.10	49.42	0.0289669
3055.20	49.08	0.0289306
3075.30	48.75	0.0287939
3095.40	48.41	0.0287233
3115.50	48.08	0.0285868
3135.60	47.74	0.0285325
3155.70	47.41	0.0285382
3175.80	47.07	0.0284539
3195.90	46.74	0.0282501
3216.00	46.40	0.0282382
3236.10	46.07	0.0282437
3256.20	45.73	0.0281749
3276.30	45.40	0.0280588
3296.40	45.06	0.0279200
3316.50	44.73	0.0278296
3336.60	44.39	0.0278320
3356.70	44.06	0.0277641
3376.80	43.72	0.0276689
3396.90	43.39	0.0276153
3417.00	43.05	0.0274958
3437.10	42.71	0.0274672
3457.20	42.38	0.0273838
3477.30	42.05	0.0273595
3497.40	41.71	0.0272505
3517.50	41.38	0.0271747
3537.60	41.04	0.0271126
3557.70	40.71	0.0271207
3577.80	40.37	0.0270116
3597.90	40.03	0.0269418
3618.00	39.70	0.0268734
3638.10	39.37	0.0268380
3658.20	39.03	0.0267809
3678.30	38.69	0.0267254
3698.40	38.36	0.0266785
3718.50	38.02	0.0266102
3738.60	37.69	0.0264790
3758.70	37.35	0.0264479
3778.80	37.02	0.0264673
3798.90	36.69	0.0263655
3819.00	36.35	0.0263473
3839.10	36.02	0.0262573
3859.20	35.68	0.0261647
3879.30	35.35	0.0261248
3899.40	35.01	0.0260864
3919.50	34.68	0.0260326
3939.60	34.34	0.0259615
3959.70	34.01	0.0259302
3979.80	33.67	0.0258646
3999.90	33.34	0.0258148
4020.00	33.00	0.0257809
4040.10	32.66	0.0256673
4060.20	32.33	0.0256176
4080.30	32.00	0.0255596
4100.40	31.66	0.0255005
4120.50	31.33	0.0254683
4140.60	30.99	0.0254407
4160.70	30.66	0.0253674
4180.80	30.32	0.0252786
4200.90	29.99	0.0252379
4221.00	29.65	0.0252115
4241.10	29.32	0.0251615
4261.20	28.98	0.0251028
4281.30	28.65	0.0250814
4301.40	28.31	0.0250871
4321.50	27.98	0.0249353
4341.60	27.64	0.0248803
4361.70	27.31	0.0248458
4381.80	26.97	0.0248397
4401.90	26.64	0.0248041
4422.00	26.30	0.0247733
4442.10	25.97	0.0246918
4462.20	25.63	0.0246893
4482.30	25.30	0.0246287
4502.40	24.96	0.0246248
4522.50	24.63	0.0245510
4542.60	24.29	0.0244783
4562.70	23.96	0.0244074
4582.80	23.62	0.0243011
4602.90	23.29	0.0117015
4623.00	23.38	0.755640
4643.10	23.22	1.02290
4663.20	22.89	1.31497
4683.30	21.99	0.109849
4703.40	21.62	0.0371673
4723.50	21.28	0.0314867
4743.60	20.94	0.0287897
4763.70	20.61	0.0271741
4783.80	20.27	0.0261590
4803.90	19.94	0.0253849
4824.00	19.60	0.0246996
4844.10	19.27	0.0241652
4864.20	18.93	0.0237255
4884.30	18.60	0.0233219
4904.40	18.26	0.0229370
4924.50	17.93	0.0225799
4944.60	17.59	0.0221552
4964.70	17.26	0.0217940
4984.80	16.92	0.0215464
5004.90	16.58	0.0213186
5025.00	16.25	0.0210841
5045.10	15.92	0.0208520
5065.20	15.58	0.0206935
5085.30	15.25	0.0204282
5105.40	14.91	0.0202244
5125.50	14.58	0.0200425
5145.60	14.24	0.0198623
5165.70	13.90	0.0196256
5185.80	13.57	0.0195031
5205.90	13.23	0.0193521
5226.00	12.90	0.0191566
5246.10	12.56	0.0190011
5266.20	12.23	0.0189178
5286.30	11.89	0.0187727
5306.40	11.56	0.0185683
5326.50	11.22	0.0184521
5346.60	10.89	0.0183527
5366.70	10.55	0.0181952
5386.80	10.22	0.0180591
5406.90	9.88	0.0179035
5427.00	9.55	0.0177635
5447.10	9.21	0.0176500
5467.20	8.88	0.0176100
5487.30	8.54	0.0174830
5507.40	8.21	0.0173709
5527.50	7.87	0.0172393
5547.60	7.54	0.0170826
5567.70	7.20	0.0169950
5587.80	6.87	0.0168931
5607.90	6.53	0.0167647
5628.00	6.20	0.0167649
5648.10	5.86	0.0167171
5668.20	5.53	0.0165821
5688.30	5.19	0.0164685
5708.40	4.86	0.0164223
5728.50	4.52	0.0163674
5748.60	4.19	0.0163133
5768.70	3.86	0.0161808
5788.80	3.52	0.0160912
5808.90	3.18	0.0160683
5829.00	2.85	0.0160254
5849.10	2.51	0.0160486
5869.20	2.18	0.0159696
5889.30	1.84	0.0159047
5909.40	1.51	0.0157763
5929.50	1.17	0.0157352
5949.60	0.84	0.0157032
5969.70	0.51	0.0155974
5989.80	0.17	0.0155821
6000.00	0.00	0.0156131