File: Differential scanning calorimetry/8OCB Squalane/8OCB SqA wt fraction 250.txt
Filename	8OCBSA250
Instrument name	DSC2A-00101 (192.168.10.4)
Operator	Yuma
rundate	5/28/2021
Sample name	8OCBSA250
proceduresegments	Data Off ; Equilibrate 150.00 °C; Isothermal 10.0 min; Equilibrate 100.00 °C; Isothermal 5.0 min; Data On ; Ramp 1.00 °C/min to 0.00 °C; Ramp 5.00 °C/min to 150.00 °C; Data Off ; Isothermal 10.0 min; Modulate Temperature 1.00 °C for 60.0 s; Equilibrate 100.00 °C; Isothermal 10.0 min; Data On ; Ramp 1.00 °C/min to 0.00 °C; Ramp 3.00 °C/min to 100.00 °C; Jump 30.00 °C
[step]
Ramp 1.00 °C/min to 0.00 °C
Time	Temperature	Heat Flow (Normalized)
s	°C	W/g
0.00000	99.84	4.25361e-3
20.0000	99.65	0.0219908
40.0000	99.33	0.0329094
60.0000	99.00	0.0352302
80.0000	98.67	0.0360300
100.000	98.33	0.0362194
120.000	98.00	0.0362569
140.000	97.67	0.0362905
160.000	97.34	0.0361394
180.000	97.00	0.0361887
200.000	96.67	0.0361740
220.000	96.34	0.0361047
240.000	96.00	0.0360343
260.000	95.67	0.0360527
280.000	95.33	0.0360200
300.000	95.00	0.0359657
320.000	94.67	0.0359901
340.000	94.33	0.0359358
360.000	94.00	0.0359132
380.000	93.67	0.0358758
400.000	93.33	0.0358911
420.000	93.00	0.0357948
440.000	92.67	0.0357857
460.000	92.34	0.0356862
480.000	92.00	0.0358088
500.000	91.67	0.0357357
520.000	91.34	0.0356912
540.000	91.00	0.0356525
560.000	90.67	0.0356555
580.000	90.34	0.0355066
600.000	90.00	0.0354671
620.000	89.67	0.0355299
640.000	89.34	0.0355190
660.000	89.00	0.0355224
680.000	88.67	0.0354462
700.000	88.33	0.0353698
720.000	88.00	0.0354308
740.000	87.67	0.0353402
760.000	87.34	0.0353362
780.000	87.00	0.0353426
800.000	86.67	0.0352622
820.000	86.34	0.0352400
840.000	86.00	0.0352538
860.000	85.67	0.0351357
880.000	85.34	0.0351164
900.000	85.00	0.0351579
920.000	84.67	0.0351162
940.000	84.34	0.0350439
960.000	84.00	0.0350221
980.000	83.67	0.0349371
1000.00	83.34	0.0349647
1020.00	83.00	0.0349752
1040.00	82.67	0.0349606
1060.00	82.34	0.0349026
1080.00	82.00	0.0349299
1100.00	81.67	0.0349146
1120.00	81.34	0.0348759
1140.00	81.00	0.0348913
1160.00	80.67	0.0348867
1180.00	80.34	0.0348470
1200.00	80.00	0.0348217
1220.00	79.67	0.0347932
1240.00	79.34	0.0348103
1260.00	79.01	0.0347469
1280.00	78.67	0.0347015
1300.00	78.34	0.0346654
1320.00	78.00	0.0347543
1340.00	77.67	0.0346829
1360.00	77.34	0.0346834
1380.00	77.00	0.0347399
1400.00	76.67	0.0346146
1420.00	76.34	0.0346034
1440.00	76.00	0.0346299
1460.00	75.67	0.0346205
1480.00	75.34	0.0345797
1500.00	75.01	0.0345707
1520.00	74.67	0.0345802
1540.00	74.34	0.0345690
1560.00	74.01	0.0345869
1580.00	73.67	0.0345670
1600.00	73.34	0.0345756
1620.00	73.01	0.0345352
1640.00	72.67	0.0345783
1660.00	72.34	0.0345451
1680.00	72.01	0.0345817
1700.00	71.67	0.0346037
1720.00	71.34	0.0345869
1740.00	71.01	0.0345606
1760.00	70.67	0.0345598
1780.00	70.34	0.0345743
1800.00	70.01	0.0346533
1820.00	69.67	0.0346576
1840.00	69.34	0.0346787
1860.00	69.01	0.0346914
1880.00	68.67	0.0347003
1900.00	68.34	0.0347068
1920.00	68.01	0.0347525
1940.00	67.67	0.0347747
1960.00	67.34	0.0348042
1980.00	67.01	0.0349008
2000.00	66.67	0.0348839
2020.00	66.34	0.0349087
2040.00	66.01	0.0350055
2060.00	65.68	0.0350545
2080.00	65.34	0.0351906
2100.00	65.01	0.0352475
2120.00	64.67	0.0352660
2140.00	64.34	0.0354273
2160.00	64.01	0.0355244
2180.00	63.67	0.0355874
2200.00	63.34	0.0357396
2220.00	63.01	0.0358816
2240.00	62.68	0.0360376
2260.00	62.34	0.0362702
2280.00	62.01	0.0364614
2300.00	61.68	0.0366796
2320.00	61.34	0.0370821
2340.00	61.01	0.0385053
2360.00	60.68	0.0397027
2380.00	60.35	0.0404528
2400.00	60.01	0.0412830
2420.00	59.68	0.0425432
2440.00	59.43	0.138072
2460.00	59.06	0.125485
2480.00	58.69	0.0627523
2500.00	58.35	0.0513691
2520.00	58.02	0.0478406
2540.00	57.69	0.0473958
2560.00	57.35	0.0468438
2580.00	57.01	0.0421674
2600.00	56.68	0.0394400
2620.00	56.34	0.0380304
2640.00	56.01	0.0371742
2660.00	55.68	0.0365344
2680.00	55.34	0.0360600
2700.00	55.01	0.0356966
2720.00	54.68	0.0354014
2740.00	54.34	0.0350490
2760.00	54.01	0.0347921
2780.00	53.68	0.0346548
2800.00	53.34	0.0344358
2820.00	53.01	0.0342237
2840.00	52.67	0.0340597
2860.00	52.34	0.0338713
2880.00	52.01	0.0337075
2900.00	51.68	0.0335926
2920.00	51.34	0.0334201
2940.00	51.01	0.0333239
2960.00	50.68	0.0331760
2980.00	50.34	0.0330819
3000.00	50.01	0.0329623
3020.00	49.68	0.0328702
3040.00	49.34	0.0327596
3060.00	49.01	0.0326241
3080.00	48.68	0.0325371
3100.00	48.34	0.0325035
3120.00	48.01	0.0323048
3140.00	47.68	0.0322848
3160.00	47.34	0.0322986
3180.00	47.01	0.0322076
3200.00	46.68	0.0320342
3220.00	46.34	0.0319017
3240.00	46.01	0.0319476
3260.00	45.68	0.0318965
3280.00	45.34	0.0317732
3300.00	45.01	0.0316647
3320.00	44.68	0.0315534
3340.00	44.34	0.0314652
3360.00	44.01	0.0314313
3380.00	43.68	0.0313915
3400.00	43.34	0.0313512
3420.00	43.01	0.0312547
3440.00	42.68	0.0311421
3460.00	42.34	0.0310617
3480.00	42.01	0.0310339
3500.00	41.68	0.0310009
3520.00	41.34	0.0308943
3540.00	41.01	0.0308754
3560.00	40.68	0.0307986
3580.00	40.34	0.0307593
3600.00	40.01	0.0307252
3620.00	39.68	0.0306190
3640.00	39.34	0.0305533
3660.00	39.01	0.0304860
3680.00	38.68	0.0304116
3700.00	38.34	0.0303580
3720.00	38.01	0.0303267
3740.00	37.68	0.0302204
3760.00	37.34	0.0301778
3780.00	37.01	0.0301644
3800.00	36.68	0.0300509
3820.00	36.34	0.0300074
3840.00	36.01	0.0299433
3860.00	35.68	0.0298771
3880.00	35.34	0.0298454
3900.00	35.01	0.0298049
3920.00	34.68	0.0297393
3940.00	34.34	0.0296698
3960.00	34.01	0.0296014
3980.00	33.68	0.0296228
4000.00	33.34	0.0295943
4020.00	33.01	0.0295193
4040.00	32.68	0.0294284
4060.00	32.34	0.0293760
4080.00	32.01	0.0293426
4100.00	31.68	0.0293003
4120.00	31.34	0.0292205
4140.00	31.01	0.0292326
4160.00	30.68	0.0291952
4180.00	30.34	0.0291260
4200.00	30.01	0.0290002
4220.00	29.68	0.0289652
4240.00	29.34	0.0289532
4260.00	29.01	0.0289004
4280.00	28.68	0.0288130
4300.00	28.34	0.0288004
4320.00	28.01	0.0287572
4340.00	27.68	0.0287381
4360.00	27.34	0.0286926
4380.00	27.01	0.0286289
4400.00	26.68	0.0285792
4420.00	26.34	0.0285165
4440.00	26.01	0.0284421
4460.00	25.68	0.0287083
4480.00	25.34	0.0291694
4500.00	25.01	0.0292059
4520.00	24.76	0.0770097
4540.00	24.96	0.819702
4560.00	24.67	0.888545
4580.00	24.39	0.908351
4600.00	23.45	0.191150
4620.00	23.02	0.0439542
4640.00	22.68	0.0332526
4660.00	22.34	0.0308598
4680.00	22.01	0.0295540
4700.00	21.68	0.0287753
4720.00	21.34	0.0282564
4740.00	21.01	0.0277603
4760.00	20.68	0.0273591
4780.00	20.34	0.0270028
4800.00	20.01	0.0266319
4820.00	19.68	0.0263777
4840.00	19.34	0.0260905
4860.00	19.01	0.0259167
4880.00	18.67	0.0256441
4900.00	18.34	0.0253313
4920.00	18.01	0.0251378
4940.00	17.67	0.0249143
4960.00	17.34	0.0247082
4980.00	17.01	0.0245444
5000.00	16.68	0.0243555
5020.00	16.34	0.0241850
5040.00	16.01	0.0240000
5060.00	15.67	0.0238577
5080.00	15.34	0.0237142
5100.00	15.01	0.0235680
5120.00	14.68	0.0234288
5140.00	14.34	0.0232482
5160.00	14.01	0.0231483
5180.00	13.67	0.0230644
5200.00	13.34	0.0229573
5220.00	13.01	0.0228218
5240.00	12.67	0.0226976
5260.00	12.34	0.0226303
5280.00	12.01	0.0224835
5300.00	11.67	0.0223903
5320.00	11.34	0.0222779
5340.00	11.01	0.0221490
5360.00	10.67	0.0220616
5380.00	10.34	0.0219472
5400.00	10.01	0.0218756
5420.00	9.67	0.0217881
5440.00	9.34	0.0216673
5460.00	9.01	0.0215774
5480.00	8.67	0.0214690
5500.00	8.34	0.0214063
5520.00	8.01	0.0213236
5540.00	7.67	0.0212004
5560.00	7.34	0.0211299
5580.00	7.01	0.0210225
5600.00	6.67	0.0209549
5620.00	6.34	0.0208284
5640.00	6.01	0.0207419
5660.00	5.67	0.0206859
5680.00	5.34	0.0206277
5700.00	5.01	0.0205750
5720.00	4.67	0.0204542
5740.00	4.34	0.0204188
5760.00	4.01	0.0203981
5780.00	3.67	0.0203074
5800.00	3.34	0.0202367
5820.00	3.01	0.0201473
5840.00	2.67	0.0200921
5860.00	2.34	0.0200438
5880.00	2.01	0.0200175
5900.00	1.67	0.0199328
5920.00	1.34	0.0198409
5940.00	1.01	0.0198177
5960.00	0.67	0.0197928
5980.00	0.34	0.0197909
5999.90	0.01	0.0197094