File: Differential scanning calorimetry/8OCB Squalane/8OCB SqA wt fraction 094.txt
Filename	8OCBSA094
Instrument name	DSC2A-00101 (192.168.10.4)
Operator	Yuma
rundate	5/28/2021
Sample name	8OCBSA094
proceduresegments	Data Off ; Equilibrate 150.00 °C; Isothermal 10.0 min; Equilibrate 100.00 °C; Isothermal 5.0 min; Data On ; Ramp 1.00 °C/min to 0.00 °C; Ramp 5.00 °C/min to 150.00 °C; Data Off ; Isothermal 10.0 min; Modulate Temperature 1.00 °C for 60.0 s; Equilibrate 100.00 °C; Isothermal 10.0 min; Data On ; Ramp 1.00 °C/min to 0.00 °C; Ramp 3.00 °C/min to 100.00 °C; Jump 30.00 °C
[step]
Ramp 1.00 °C/min to 0.00 °C
Time	Temperature	Heat Flow (Normalized)
s	°C	W/g
0.00000	99.84	1.26150e-3
20.0000	99.65	0.0183956
40.0000	99.33	0.0290197
60.0000	99.00	0.0312656
80.0000	98.66	0.0319384
100.000	98.33	0.0320927
120.000	98.00	0.0322252
140.000	97.66	0.0321037
160.000	97.33	0.0320938
180.000	97.00	0.0322493
200.000	96.66	0.0319828
220.000	96.33	0.0318730
240.000	96.00	0.0319085
260.000	95.66	0.0318568
280.000	95.33	0.0318095
300.000	95.00	0.0317998
320.000	94.67	0.0317811
340.000	94.33	0.0317777
360.000	94.00	0.0317926
380.000	93.67	0.0317265
400.000	93.33	0.0316846
420.000	93.00	0.0317115
440.000	92.67	0.0316813
460.000	92.33	0.0316392
480.000	92.00	0.0315939
500.000	91.67	0.0315176
520.000	91.33	0.0314884
540.000	91.00	0.0315872
560.000	90.67	0.0315287
580.000	90.33	0.0315496
600.000	90.00	0.0314981
620.000	89.67	0.0313785
640.000	89.33	0.0314100
660.000	89.00	0.0313965
680.000	88.67	0.0313877
700.000	88.33	0.0313766
720.000	88.00	0.0313071
740.000	87.67	0.0312185
760.000	87.33	0.0312496
780.000	87.00	0.0313060
800.000	86.67	0.0312298
820.000	86.33	0.0312235
840.000	86.00	0.0311582
860.000	85.67	0.0312265
880.000	85.33	0.0312188
900.000	85.00	0.0312081
920.000	84.67	0.0311966
940.000	84.33	0.0311473
960.000	84.00	0.0311241
980.000	83.67	0.0311591
1000.00	83.33	0.0311240
1020.00	83.00	0.0311002
1040.00	82.67	0.0310994
1060.00	82.34	0.0311126
1080.00	82.00	0.0311013
1100.00	81.67	0.0311517
1120.00	81.33	0.0311002
1140.00	81.00	0.0310497
1160.00	80.67	0.0310727
1180.00	80.33	0.0310846
1200.00	80.00	0.0310642
1220.00	79.67	0.0310545
1240.00	79.34	0.0309963
1260.00	79.00	0.0310138
1280.00	78.67	0.0310502
1300.00	78.34	0.0310520
1320.00	78.00	0.0310634
1340.00	77.67	0.0310784
1360.00	77.34	0.0310694
1380.00	77.00	0.0310282
1400.00	76.67	0.0310794
1420.00	76.34	0.0310995
1440.00	76.00	0.0310769
1460.00	75.67	0.0310463
1480.00	75.34	0.0310964
1500.00	75.00	0.0312008
1520.00	74.67	0.0311796
1540.00	74.34	0.0311355
1560.00	74.00	0.0311555
1580.00	73.67	0.0312139
1600.00	73.34	0.0312326
1620.00	73.00	0.0312190
1640.00	72.67	0.0312481
1660.00	72.34	0.0313284
1680.00	72.00	0.0313468
1700.00	71.67	0.0313505
1720.00	71.34	0.0314194
1740.00	71.00	0.0314583
1760.00	70.67	0.0315242
1780.00	70.34	0.0316697
1800.00	70.00	0.0317234
1820.00	69.67	0.0317317
1840.00	69.34	0.0318527
1860.00	69.00	0.0319107
1880.00	68.67	0.0319956
1900.00	68.34	0.0321282
1920.00	68.01	0.0322702
1940.00	67.67	0.0325110
1960.00	67.34	0.0327768
1980.00	67.01	0.0331003
2000.00	66.67	0.0334961
2020.00	66.34	0.0360106
2040.00	66.01	0.0392327
2060.00	65.68	0.0416651
2080.00	65.35	0.0437671
2100.00	65.01	0.0442768
2120.00	64.68	0.0437364
2140.00	64.35	0.0426619
2160.00	64.01	0.0415505
2180.00	63.68	0.0405656
2200.00	63.34	0.0397494
2220.00	63.01	0.0389366
2240.00	62.68	0.0382730
2260.00	62.34	0.0377623
2280.00	62.01	0.0372359
2300.00	61.68	0.0367562
2320.00	61.34	0.0363519
2340.00	61.01	0.0359743
2360.00	60.68	0.0356334
2380.00	60.34	0.0353319
2400.00	60.01	0.0351408
2420.00	59.68	0.0350732
2440.00	59.34	0.0364753
2460.00	59.01	0.0356550
2480.00	58.68	0.0360638
2500.00	58.35	0.0375607
2520.00	58.01	0.0393039
2540.00	57.68	0.0460846
2560.00	57.34	0.0419154
2580.00	57.01	0.0372023
2600.00	56.68	0.0345756
2620.00	56.34	0.0332045
2640.00	56.01	0.0323742
2660.00	55.67	0.0317786
2680.00	55.34	0.0313562
2700.00	55.01	0.0310202
2720.00	54.67	0.0307437
2740.00	54.34	0.0304728
2760.00	54.01	0.0302636
2780.00	53.67	0.0300911
2800.00	53.34	0.0298598
2820.00	53.01	0.0296987
2840.00	52.67	0.0295013
2860.00	52.34	0.0293677
2880.00	52.01	0.0292064
2900.00	51.67	0.0290609
2920.00	51.34	0.0289823
2940.00	51.01	0.0288034
2960.00	50.67	0.0286975
2980.00	50.34	0.0286065
3000.00	50.01	0.0285140
3020.00	49.67	0.0283891
3040.00	49.34	0.0282462
3060.00	49.01	0.0281985
3080.00	48.67	0.0281328
3100.00	48.34	0.0280395
3120.00	48.01	0.0278333
3140.00	47.67	0.0278210
3160.00	47.34	0.0278690
3180.00	47.01	0.0276805
3200.00	46.67	0.0275530
3220.00	46.34	0.0275077
3240.00	46.01	0.0275425
3260.00	45.67	0.0274075
3280.00	45.34	0.0273686
3300.00	45.01	0.0272966
3320.00	44.67	0.0272442
3340.00	44.34	0.0271428
3360.00	44.01	0.0270825
3380.00	43.67	0.0270943
3400.00	43.34	0.0270032
3420.00	43.01	0.0269323
3440.00	42.67	0.0269130
3460.00	42.34	0.0268117
3480.00	42.01	0.0267741
3500.00	41.67	0.0266847
3520.00	41.34	0.0266130
3540.00	41.01	0.0265837
3560.00	40.67	0.0265250
3580.00	40.34	0.0264564
3600.00	40.01	0.0264482
3620.00	39.67	0.0263343
3640.00	39.34	0.0263004
3660.00	39.01	0.0262901
3680.00	38.67	0.0261784
3700.00	38.34	0.0261604
3720.00	38.01	0.0260673
3740.00	37.67	0.0260509
3760.00	37.34	0.0259801
3780.00	37.01	0.0258915
3800.00	36.67	0.0259130
3820.00	36.34	0.0258314
3840.00	36.01	0.0257999
3860.00	35.67	0.0257266
3880.00	35.34	0.0256714
3900.00	35.01	0.0256356
3920.00	34.67	0.0255426
3940.00	34.34	0.0255343
3960.00	34.01	0.0254896
3980.00	33.67	0.0254354
4000.00	33.34	0.0253875
4020.00	33.01	0.0253545
4040.00	32.67	0.0252450
4060.00	32.34	0.0252518
4080.00	32.01	0.0252149
4100.00	31.67	0.0251229
4120.00	31.34	0.0250681
4140.00	31.01	0.0250457
4160.00	30.67	0.0249960
4180.00	30.34	0.0249681
4200.00	30.01	0.0249080
4220.00	29.67	0.0248608
4240.00	29.34	0.0247975
4260.00	29.01	0.0247112
4280.00	28.67	0.0247026
4300.00	28.34	0.0247424
4320.00	28.01	0.0246503
4340.00	27.67	0.0245343
4360.00	27.34	0.0245349
4380.00	27.01	0.0244879
4400.00	26.67	0.0244232
4420.00	26.34	0.0244004
4440.00	26.01	0.0243591
4460.00	25.84	0.109130
4480.00	26.49	1.60939
4500.00	25.69	1.00463
4520.00	25.05	0.540664
4540.00	24.39	0.113640
4560.00	24.01	0.0322187
4580.00	23.67	0.0271884
4600.00	23.34	0.0249417
4620.00	23.01	0.0237511
4640.00	22.67	0.0229518
4660.00	22.34	0.0223726
4680.00	22.01	0.0219193
4700.00	21.67	0.0214793
4720.00	21.34	0.0211798
4740.00	21.01	0.0208726
4760.00	20.67	0.0206078
4780.00	20.34	0.0203670
4800.00	20.01	0.0201060
4820.00	19.67	0.0199770
4840.00	19.34	0.0197922
4860.00	19.01	0.0196096
4880.00	18.67	0.0194187
4900.00	18.34	0.0192283
4920.00	18.00	0.0191160
4940.00	17.67	0.0189445
4960.00	17.34	0.0188074
4980.00	17.00	0.0186924
5000.00	16.67	0.0185380
5020.00	16.34	0.0184045
5040.00	16.01	0.0183517
5060.00	15.67	0.0183041
5080.00	15.34	0.0181308
5100.00	15.00	0.0179917
5120.00	14.67	0.0178868
5140.00	14.34	0.0177808
5160.00	14.01	0.0176985
5180.00	13.67	0.0175979
5200.00	13.34	0.0174976
5220.00	13.00	0.0174116
5240.00	12.67	0.0173313
5260.00	12.34	0.0172271
5280.00	12.00	0.0171297
5300.00	11.67	0.0170369
5320.00	11.34	0.0169492
5340.00	11.01	0.0168738
5360.00	10.67	0.0167595
5380.00	10.34	0.0167045
5400.00	10.01	0.0165489
5420.00	9.67	0.0164772
5440.00	9.34	0.0163920
5460.00	9.01	0.0162923
5480.00	8.67	0.0162004
5500.00	8.34	0.0161002
5520.00	8.00	0.0160490
5540.00	7.67	0.0159611
5560.00	7.34	0.0159200
5580.00	7.00	0.0158427
5600.00	6.67	0.0157492
5620.00	6.34	0.0156701
5640.00	6.00	0.0155946
5660.00	5.67	0.0155400
5680.00	5.34	0.0154680
5700.00	5.00	0.0153691
5720.00	4.67	0.0153441
5740.00	4.34	0.0152244
5760.00	4.01	0.0151585
5780.00	3.67	0.0151004
5800.00	3.34	0.0150540
5820.00	3.00	0.0150578
5840.00	2.67	0.0149876
5860.00	2.34	0.0149317
5880.00	2.00	0.0148780
5900.00	1.67	0.0147952
5920.00	1.34	0.0147569
5940.00	1.00	0.0147205
5960.00	0.67	0.0147298
5980.00	0.34	0.0146626
5999.90	0.01	0.0145942