File: Differential scanning calorimetry/8OCB Squalane/8OCB SqA wt fraction 397.txt
Filename	8OCBSA397
Instrument name	DSC2A-00101 (192.168.10.4)
Operator	Yuma
rundate	5/28/2021
Sample name	8OCBSA397
proceduresegments	Data Off ; Equilibrate 150.00 °C; Isothermal 10.0 min; Equilibrate 100.00 °C; Isothermal 5.0 min; Data On ; Ramp 1.00 °C/min to 0.00 °C; Ramp 5.00 °C/min to 150.00 °C; Data Off ; Isothermal 10.0 min; Modulate Temperature 1.00 °C for 60.0 s; Equilibrate 100.00 °C; Isothermal 10.0 min; Data On ; Ramp 1.00 °C/min to 0.00 °C; Ramp 3.00 °C/min to 100.00 °C; Jump 30.00 °C
[step]
Ramp 1.00 °C/min to 0.00 °C
Time	Temperature	Heat Flow (Normalized)
s	°C	W/g
0.00000	99.84	4.45707e-3
20.0000	99.65	0.0208668
40.0000	99.32	0.0315097
60.0000	98.99	0.0341064
80.0000	98.66	0.0348180
100.000	98.32	0.0349872
120.000	97.99	0.0350289
140.000	97.66	0.0349448
160.000	97.32	0.0349239
180.000	96.99	0.0348040
200.000	96.66	0.0347594
220.000	96.32	0.0347545
240.000	95.99	0.0346570
260.000	95.66	0.0346238
280.000	95.33	0.0346057
300.000	94.99	0.0345886
320.000	94.66	0.0345843
340.000	94.32	0.0344867
360.000	93.99	0.0343895
380.000	93.66	0.0342674
400.000	93.32	0.0342478
420.000	92.99	0.0341770
440.000	92.66	0.0341949
460.000	92.33	0.0340901
480.000	91.99	0.0340529
500.000	91.66	0.0339881
520.000	91.32	0.0339598
540.000	90.99	0.0339062
560.000	90.66	0.0338429
580.000	90.33	0.0337608
600.000	89.99	0.0337204
620.000	89.66	0.0336350
640.000	89.33	0.0336008
660.000	88.99	0.0335353
680.000	88.66	0.0334699
700.000	88.33	0.0334933
720.000	87.99	0.0334139
740.000	87.66	0.0333058
760.000	87.33	0.0332508
780.000	86.99	0.0332735
800.000	86.66	0.0332197
820.000	86.33	0.0331986
840.000	85.99	0.0330824
860.000	85.66	0.0330789
880.000	85.33	0.0329996
900.000	84.99	0.0329618
920.000	84.66	0.0329332
940.000	84.33	0.0328809
960.000	83.99	0.0327685
980.000	83.66	0.0327024
1000.00	83.33	0.0326646
1020.00	82.99	0.0326254
1040.00	82.66	0.0326427
1060.00	82.33	0.0325898
1080.00	81.99	0.0325474
1100.00	81.66	0.0325495
1120.00	81.33	0.0325214
1140.00	80.99	0.0325103
1160.00	80.66	0.0323375
1180.00	80.33	0.0322828
1200.00	79.99	0.0322724
1220.00	79.66	0.0322419
1240.00	79.33	0.0322324
1260.00	78.99	0.0320833
1280.00	78.66	0.0320545
1300.00	78.33	0.0320798
1320.00	77.99	0.0320631
1340.00	77.66	0.0320090
1360.00	77.33	0.0319269
1380.00	77.00	0.0318738
1400.00	76.66	0.0318640
1420.00	76.33	0.0319174
1440.00	76.00	0.0318285
1460.00	75.66	0.0317686
1480.00	75.33	0.0317863
1500.00	75.00	0.0317785
1520.00	74.66	0.0317294
1540.00	74.33	0.0316901
1560.00	74.00	0.0316468
1580.00	73.66	0.0316126
1600.00	73.33	0.0316033
1620.00	72.99	0.0316031
1640.00	72.66	0.0315149
1660.00	72.33	0.0314919
1680.00	72.00	0.0315127
1700.00	71.66	0.0314061
1720.00	71.33	0.0314203
1740.00	71.00	0.0313821
1760.00	70.66	0.0314174
1780.00	70.33	0.0313443
1800.00	70.00	0.0313659
1820.00	69.66	0.0313452
1840.00	69.33	0.0313165
1860.00	69.00	0.0312928
1880.00	68.66	0.0313831
1900.00	68.33	0.0313125
1920.00	68.00	0.0312898
1940.00	67.66	0.0313161
1960.00	67.33	0.0313219
1980.00	67.00	0.0313416
2000.00	66.66	0.0313319
2020.00	66.33	0.0313420
2040.00	66.00	0.0313682
2060.00	65.66	0.0314330
2080.00	65.33	0.0314812
2100.00	65.00	0.0315443
2120.00	64.66	0.0315688
2140.00	64.33	0.0316905
2160.00	64.00	0.0317923
2180.00	63.66	0.0319017
2200.00	63.33	0.0321149
2220.00	63.00	0.0321904
2240.00	62.66	0.0324195
2260.00	62.33	0.0327281
2280.00	62.00	0.0350577
2300.00	61.67	0.0380296
2320.00	61.33	0.0385206
2340.00	61.00	0.0384870
2360.00	60.67	0.0384642
2380.00	60.34	0.0384874
2400.00	60.00	0.0387149
2420.00	59.67	0.0393431
2440.00	59.40	0.140382
2460.00	59.01	0.0711067
2480.00	58.67	0.0501689
2500.00	58.34	0.0472708
2520.00	58.00	0.0433285
2540.00	57.67	0.0423183
2560.00	57.34	0.0417041
2580.00	57.00	0.0378323
2600.00	56.67	0.0354606
2620.00	56.33	0.0341465
2640.00	56.00	0.0333675
2660.00	55.67	0.0327624
2680.00	55.33	0.0323148
2700.00	55.00	0.0319266
2720.00	54.67	0.0315775
2740.00	54.33	0.0312955
2760.00	54.00	0.0310631
2780.00	53.67	0.0308126
2800.00	53.33	0.0305376
2820.00	53.00	0.0303319
2840.00	52.67	0.0301275
2860.00	52.33	0.0299645
2880.00	52.00	0.0298220
2900.00	51.66	0.0296762
2920.00	51.33	0.0295228
2940.00	51.00	0.0293591
2960.00	50.67	0.0292023
2980.00	50.33	0.0290613
3000.00	50.00	0.0289378
3020.00	49.66	0.0287945
3040.00	49.33	0.0286458
3060.00	49.00	0.0285652
3080.00	48.66	0.0285423
3100.00	48.33	0.0283863
3120.00	48.00	0.0281706
3140.00	47.66	0.0281207
3160.00	47.33	0.0281398
3180.00	47.00	0.0278995
3200.00	46.67	0.0276885
3220.00	46.33	0.0276118
3240.00	46.00	0.0276131
3260.00	45.66	0.0275337
3280.00	45.33	0.0273534
3300.00	45.00	0.0273200
3320.00	44.67	0.0272439
3340.00	44.33	0.0271660
3360.00	44.00	0.0270505
3380.00	43.66	0.0269262
3400.00	43.33	0.0268566
3420.00	43.00	0.0267851
3440.00	42.66	0.0266929
3460.00	42.33	0.0265893
3480.00	42.00	0.0265067
3500.00	41.66	0.0264160
3520.00	41.33	0.0263026
3540.00	41.00	0.0261949
3560.00	40.66	0.0262153
3580.00	40.33	0.0261117
3600.00	40.00	0.0260556
3620.00	39.67	0.0259825
3640.00	39.33	0.0258369
3660.00	39.00	0.0257798
3680.00	38.66	0.0256789
3700.00	38.33	0.0255884
3720.00	38.00	0.0255170
3740.00	37.66	0.0254953
3760.00	37.33	0.0253772
3780.00	37.00	0.0253134
3800.00	36.66	0.0252907
3820.00	36.33	0.0252323
3840.00	36.00	0.0250860
3860.00	35.67	0.0249513
3880.00	35.33	0.0248525
3900.00	35.00	0.0247994
3920.00	34.67	0.0247502
3940.00	34.33	0.0246602
3960.00	34.00	0.0246279
3980.00	33.67	0.0245284
4000.00	33.33	0.0244526
4020.00	33.00	0.0243694
4040.00	32.67	0.0243081
4060.00	32.33	0.0242586
4080.00	32.00	0.0242237
4100.00	31.66	0.0240629
4120.00	31.33	0.0240430
4140.00	31.00	0.0240031
4160.00	30.67	0.0239215
4180.00	30.33	0.0239115
4200.00	30.00	0.0238780
4220.00	29.67	0.0240024
4240.00	29.34	0.0386066
4260.00	29.37	0.701518
4280.00	28.99	0.619316
4300.00	28.77	0.806168
4320.00	28.08	0.208729
4340.00	27.67	0.0367449
4360.00	27.33	0.0272608
4380.00	27.00	0.0243144
4400.00	26.67	0.0229754
4420.00	26.33	0.0223224
4440.00	26.00	0.0218450
4460.00	25.66	0.0214894
4480.00	25.33	0.0211840
4500.00	25.00	0.0209218
4520.00	24.66	0.0207145
4540.00	24.33	0.0205424
4560.00	24.00	0.0203556
4580.00	23.66	0.0201737
4600.00	23.33	0.0200039
4620.00	23.00	0.0198720
4640.00	22.66	0.0197005
4660.00	22.33	0.0195946
4680.00	22.00	0.0194513
4700.00	21.66	0.0193816
4720.00	21.33	0.0192405
4740.00	21.00	0.0190511
4760.00	20.66	0.0189493
4780.00	20.33	0.0188255
4800.00	20.00	0.0187618
4820.00	19.66	0.0186013
4840.00	19.33	0.0184913
4860.00	19.00	0.0184038
4880.00	18.66	0.0183206
4900.00	18.33	0.0181473
4920.00	18.00	0.0180216
4940.00	17.66	0.0179273
4960.00	17.33	0.0177902
4980.00	17.00	0.0177329
5000.00	16.66	0.0176379
5020.00	16.33	0.0175195
5040.00	16.00	0.0174519
5060.00	15.66	0.0173889
5080.00	15.33	0.0173283
5100.00	15.00	0.0171943
5120.00	14.66	0.0171077
5140.00	14.33	0.0169544
5160.00	14.00	0.0169115
5180.00	13.66	0.0168354
5200.00	13.33	0.0166585
5220.00	13.00	0.0165741
5240.00	12.66	0.0165765
5260.00	12.33	0.0164512
5280.00	12.00	0.0163803
5300.00	11.66	0.0162643
5320.00	11.33	0.0161508
5340.00	11.00	0.0160471
5360.00	10.66	0.0159575
5380.00	10.33	0.0158659
5400.00	10.00	0.0157962
5420.00	9.66	0.0156766
5440.00	9.33	0.0156367
5460.00	9.00	0.0155558
5480.00	8.66	0.0154265
5500.00	8.33	0.0153733
5520.00	8.00	0.0152539
5540.00	7.66	0.0151992
5560.00	7.33	0.0150948
5580.00	7.00	0.0149939
5600.00	6.66	0.0149474
5620.00	6.33	0.0147778
5640.00	6.00	0.0147476
5660.00	5.66	0.0146970
5680.00	5.33	0.0146327
5700.00	5.00	0.0145101
5720.00	4.66	0.0144010
5740.00	4.33	0.0143119
5760.00	4.00	0.0142775
5780.00	3.66	0.0142223
5800.00	3.33	0.0141126
5820.00	3.00	0.0140462
5840.00	2.66	0.0139426
5860.00	2.33	0.0139639
5880.00	2.00	0.0138698
5900.00	1.66	0.0138244
5920.00	1.33	0.0138063
5940.00	1.00	0.0137398
5960.00	0.66	0.0136827
5980.00	0.33	0.0136425
5999.90	0.00	0.0136134